timestamps,TP9,AF7,AF8,TP10,Right AUX
1700264825.659,-1000.000,-59.570,-579.102,-149.414,0.000
1700264825.663,-831.055,-52.734,-673.340,-815.918,0.000
1700264825.667,102.051,-6.836,-504.395,166.016,0.000
1700264825.671,-205.566,-9.277,-372.070,919.922,0.000
1700264825.675,-1000.000,-59.570,-524.414,190.918,0.000
1700264825.679,-1000.000,-118.652,-752.930,-821.289,0.000
1700264825.683,-354.980,-59.082,-599.121,-170.410,0.000
1700264825.686,-151.855,-21.973,-429.199,885.742,0.000
1700264825.690,-891.113,-40.527,-495.117,541.992,0.000
1700264825.694,-1000.000,-79.590,-666.016,-685.547,0.000
1700264825.698,-504.883,-72.266,-652.344,-437.500,0.000
1700264825.702,18.066,-24.414,-463.379,735.352,0.000
1700264825.706,-696.777,-19.043,-349.609,826.172,0.000
1700264825.710,-1000.000,-95.703,-625.977,-313.965,0.000
1700264825.714,-672.363,-99.609,-700.195,-574.707,0.000
1700264825.718,89.355,-14.160,-472.656,560.059,0.000
1700264825.722,-435.059,1.953,-281.250,999.512,0.000
1700264825.725,-1000.000,-93.750,-554.688,168.945,0.000
1700264825.729,-868.652,-159.180,-849.121,-548.828,0.000
1700264825.733,100.098,-91.309,-688.965,344.238,0.000
1700264825.737,-6.348,0.977,-289.551,999.512,0.000
1700264825.741,-922.852,-43.945,-366.699,489.258,0.000
1700264825.745,-1000.000,-124.023,-661.621,-577.148,0.000
1700264825.749,-162.598,-66.406,-443.848,-55.664,0.000
1700264825.753,407.227,3.906,-217.773,958.496,0.000
1700264825.757,-552.246,-43.945,-365.234,771.484,0.000
1700264825.761,-1000.000,-134.277,-686.523,-373.535,0.000
1700264825.765,-347.656,-80.566,-543.457,-335.449,0.000
1700264825.768,710.449,-14.160,-260.254,765.625,0.000
1700264825.772,-127.441,-62.988,-355.469,999.023,0.000
1700264825.776,-1000.000,-161.133,-668.945,-3.906,0.000
1700264825.780,-570.801,-113.770,-647.949,-511.230,0.000
1700264825.784,772.949,-21.484,-312.500,482.910,0.000
1700264825.788,479.004,-46.875,-242.188,999.512,0.000
1700264825.792,-844.727,-122.559,-538.086,272.949,0.000
1700264825.796,-855.957,-141.113,-602.051,-663.574,0.000
1700264825.800,538.574,-63.965,-339.355,116.211,0.000
1700264825.804,960.449,-48.828,-273.438,999.512,0.000
1700264825.807,-310.547,-110.840,-443.848,540.527,0.000
1700264825.811,-1000.000,-138.184,-551.270,-643.555,0.000
1700264825.815,125.000,-80.566,-442.871,-184.082,0.000
1700264825.819,999.512,-63.965,-409.668,939.453,0.000
1700264825.823,109.863,-107.910,-485.352,789.062,0.000
1700264825.827,-1000.000,-145.020,-601.074,-407.715,0.000
1700264825.831,-181.152,-101.074,-529.297,-496.582,0.000
1700264825.835,999.512,-48.340,-311.523,647.949,0.000
1700264825.839,576.660,-61.523,-213.867,971.680,0.000
1700264825.842,-875.488,-116.699,-376.953,-113.281,0.000
1700264825.847,-433.105,-124.023,-529.297,-702.148,0.000
1700264825.850,999.512,-63.965,-372.070,317.383,0.000
1700264825.854,999.512,-41.016,-184.570,999.512,0.000
1700264825.858,-321.289,-108.887,-367.676,204.590,0.000
1700264825.862,-711.426,-155.273,-594.727,-760.742,0.000
1700264825.866,708.496,-98.633,-489.258,0.488,0.000
1700264825.870,999.512,-58.594,-249.512,958.496,0.000
1700264825.874,106.934,-102.539,-301.270,493.164,0.000
1700264825.878,-984.375,-173.340,-610.352,-669.922,0.000
1700264825.882,247.559,-129.883,-512.695,-357.422,0.000
1700264825.886,999.512,-46.875,-224.609,719.238,0.000
1700264825.889,520.996,-49.805,-205.078,703.613,0.000
1700264825.893,-899.902,-148.926,-599.609,-415.527,0.000
1700264825.897,-118.164,-153.809,-721.680,-585.938,0.000
1700264825.901,999.512,-47.852,-275.391,479.492,0.000
1700264825.905,931.152,-50.781,-210.938,901.855,0.000
1700264825.909,-462.891,-147.461,-535.645,-62.500,0.000
1700264825.913,-415.527,-165.527,-638.672,-778.320,0.000
1700264825.917,986.816,-78.613,-380.371,127.930,0.000
1700264825.921,999.512,-40.527,-225.098,899.902,0.000
1700264825.925,-62.500,-138.184,-542.969,249.512,0.000
1700264825.928,-746.094,-184.082,-740.234,-797.363,0.000
1700264825.932,636.719,-51.270,-369.141,-262.207,0.000
1700264825.936,999.512,0.488,-91.309,811.035,0.000
1700264825.940,278.809,-55.664,-161.133,529.297,0.000
1700264825.944,-965.332,-131.836,-512.695,-694.824,0.000
1700264825.948,142.578,-89.355,-435.547,-522.461,0.000
1700264825.952,999.512,-28.320,-169.434,656.738,0.000
1700264825.956,679.199,-61.523,-206.055,828.125,0.000
1700264825.960,-765.625,-129.395,-562.500,-302.246,0.000
1700264825.964,-225.098,-86.914,-497.070,-682.617,0.000
1700264825.968,999.512,-15.625,-256.348,407.715,0.000
1700264825.972,999.512,-56.641,-272.461,999.512,0.000
1700264825.975,-351.562,-89.844,-350.586,44.922,0.000
1700264825.979,-490.234,-78.125,-425.293,-830.078,0.000
1700264825.983,932.129,-38.574,-373.047,114.746,0.000
1700264825.987,999.512,-15.137,-139.648,992.676,0.000
1700264825.991,4.883,-48.340,-153.320,349.609,0.000
1700264825.995,-833.984,-105.469,-500.000,-758.789,0.000
1700264825.999,510.742,-59.570,-458.008,-210.449,0.000
1700264826.003,999.512,-9.766,-182.617,882.812,0.000
1700264826.007,375.000,-65.918,-250.488,604.980,0.000
1700264826.011,-961.426,-130.371,-603.516,-642.578,0.000
1700264826.014,25.879,-123.535,-696.289,-473.145,0.000
1700264826.018,999.512,-52.734,-469.727,670.410,0.000
1700264826.022,721.680,19.043,-28.320,774.414,0.000
1700264826.026,-747.559,-82.031,-440.918,-316.895,0.000
1700264826.030,-333.984,-104.492,-642.090,-772.461,0.000
1700264826.034,999.512,3.906,-229.492,249.512,0.000
1700264826.038,999.512,19.043,-54.688,881.836,0.000
1700264826.042,-309.082,-67.383,-390.625,30.273,0.000
1700264826.046,-645.508,-105.469,-661.133,-890.137,0.000
1700264826.050,787.109,-28.320,-365.234,-111.816,0.000
1700264826.054,999.512,-1.953,-245.117,868.652,0.000
1700264826.057,41.992,-62.500,-417.480,395.996,0.000
1700264826.061,-973.633,-145.996,-682.129,-743.652,0.000
1700264826.065,284.668,-56.152,-440.430,-392.090,0.000
1700264826.069,999.512,9.277,-204.590,708.008,0.000
1700264826.073,378.418,-63.477,-337.402,672.363,0.000
1700264826.077,-1000.000,-131.348,-612.793,-564.453,0.000
1700264826.081,-159.668,-79.102,-511.719,-692.871,0.000
1700264826.085,999.512,-2.930,-200.684,456.543,0.000
1700264826.089,776.855,-43.457,-288.574,861.816,0.000
1700264826.093,-705.566,-119.141,-568.848,-222.168,0.000
1700264826.096,-437.988,-106.934,-551.758,-842.773,0.000
1700264826.100,999.512,-48.828,-351.562,210.449,0.000
1700264826.104,999.512,-69.336,-354.492,980.469,0.000
1700264826.108,-203.613,-139.160,-603.027,230.957,0.000
1700264826.112,-812.500,-119.141,-565.918,-866.211,0.000
1700264826.116,607.910,-41.504,-333.984,-142.090,0.000
1700264826.120,999.512,-20.508,-175.293,908.203,0.000
1700264826.124,47.852,-93.750,-296.387,520.996,0.000
1700264826.128,-1000.000,-157.715,-596.680,-660.156,0.000
1700264826.132,85.449,-106.445,-502.930,-376.953,0.000
1700264826.136,999.512,-53.711,-224.121,776.367,0.000
1700264826.139,400.391,-73.242,-133.789,812.500,0.000
1700264826.143,-1000.000,-149.414,-487.305,-344.238,0.000
1700264826.147,-280.273,-144.531,-571.777,-552.246,0.000
1700264826.151,999.512,-99.609,-421.387,596.680,0.000
1700264826.155,702.148,-69.824,-151.367,999.512,0.000
1700264826.159,-770.508,-116.211,-264.160,-32.715,0.000
1700264826.163,-580.078,-162.598,-623.535,-707.031,0.000
1700264826.167,890.625,-88.379,-396.973,249.023,0.000
1700264826.171,999.512,-38.574,-15.625,999.512,0.000
1700264826.175,-270.508,-106.934,-214.844,399.902,0.000
1700264826.178,-903.809,-178.223,-638.184,-635.254,0.000
1700264826.182,462.402,-112.305,-449.219,-41.016,0.000
1700264826.186,999.512,-46.387,-86.914,966.797,0.000
1700264826.190,117.676,-86.426,-133.301,701.172,0.000
1700264826.194,-1000.000,-208.008,-658.203,-416.504,0.000
1700264826.198,39.551,-186.035,-693.848,-258.789,0.000
1700264826.202,999.512,-59.570,-244.141,783.691,0.000
1700264826.206,558.594,-51.270,-40.039,951.172,0.000
1700264826.210,-943.848,-158.203,-363.770,-116.211,0.000
1700264826.214,-333.496,-152.344,-454.102,-507.324,0.000
1700264826.217,999.512,-59.570,-195.312,540.039,0.000
1700264826.222,906.250,-68.848,-55.176,999.512,0.000
1700264826.225,-478.516,-144.531,-313.965,267.090,0.000
1700264826.229,-651.855,-155.273,-552.246,-611.328,0.000
1700264826.233,853.516,-75.195,-280.762,240.723,0.000
1700264826.237,999.512,-62.500,-46.387,999.512,0.000
1700264826.241,-270.020,-145.996,-337.402,472.656,0.000
1700264826.245,-981.934,-193.848,-643.555,-502.930,0.000
1700264826.249,294.922,-104.492,-354.980,-79.590,0.000
1700264826.253,999.512,-32.715,-31.738,941.895,0.000
1700264826.257,212.891,-99.121,-278.809,794.922,0.000
1700264826.260,-1000.000,-144.531,-544.922,-382.324,0.000
1700264826.264,-149.902,-97.656,-399.414,-391.113,0.000
1700264826.268,999.512,-63.477,-273.926,737.305,0.000
1700264826.272,593.750,-71.289,-192.383,997.070,0.000
1700264826.276,-923.340,-128.418,-350.098,-34.668,0.000
1700264826.280,-410.645,-134.277,-525.879,-541.992,0.000
1700264826.284,999.512,-61.523,-322.266,475.098,0.000
1700264826.288,942.383,-40.039,-267.090,999.512,0.000
1700264826.292,-393.066,-116.211,-487.793,331.055,0.000
1700264826.296,-734.375,-153.320,-641.113,-618.164,0.000
1700264826.300,705.078,-102.539,-574.707,156.738,0.000
1700264826.303,999.512,-55.176,-238.770,999.512,0.000
1700264826.307,-28.809,-50.293,-110.840,585.938,0.000
1700264826.311,-1000.000,-121.094,-542.969,-536.621,0.000
1700264826.315,219.238,-78.125,-437.988,-172.852,0.000
1700264826.319,999.512,-19.043,-229.492,886.719,0.000
1700264826.323,390.625,-43.945,-236.328,847.656,0.000
1700264826.327,-1000.000,-120.117,-506.348,-278.320,0.000
1700264826.331,-177.246,-109.863,-518.555,-378.906,0.000
1700264826.335,999.512,-41.992,-279.297,718.262,0.000
1700264826.339,773.438,-21.973,-62.500,999.512,0.000
1700264826.343,-700.195,-98.145,-333.008,76.660,0.000
1700264826.346,-424.805,-145.508,-629.395,-511.230,0.000
1700264826.350,997.559,-33.203,-188.965,389.648,0.000
1700264826.354,999.512,2.930,80.078,999.512,0.000
1700264826.358,-184.570,-103.027,-347.168,459.961,0.000
1700264826.362,-795.410,-145.020,-674.805,-540.527,0.000
1700264826.366,597.168,-47.363,-218.750,49.316,0.000
1700264826.370,999.512,-7.324,85.938,999.512,0.000
1700264826.374,155.273,-84.473,-208.496,713.379,0.000
1700264826.378,-967.773,-150.879,-575.684,-369.141,0.000
1700264826.382,220.703,-88.379,-445.312,-163.574,0.000
1700264826.386,999.512,-36.621,-208.984,837.891,0.000
1700264826.389,595.215,-106.445,-396.973,939.941,0.000
1700264826.393,-879.395,-175.781,-696.289,-182.129,0.000
1700264826.397,-265.137,-83.984,-427.246,-606.934,0.000
1700264826.401,999.512,-16.602,-188.965,480.469,0.000
1700264826.405,918.945,-33.691,-133.301,999.512,0.000
1700264826.409,-493.652,-98.145,-391.113,88.379,0.000
1700264826.413,-522.949,-121.094,-543.945,-711.426,0.000
1700264826.417,927.246,-56.641,-293.457,168.945,0.000
1700264826.421,999.512,-24.902,-93.750,992.676,0.000
1700264826.425,-80.566,-69.824,-258.789,350.098,0.000
1700264826.429,-841.309,-127.930,-570.801,-729.980,0.000
1700264826.432,492.676,-80.566,-436.523,-220.703,0.000
1700264826.436,999.512,-65.430,-292.480,817.383,0.000
1700264826.440,201.660,-75.684,-311.035,550.293,0.000
1700264826.444,-1000.000,-108.398,-494.141,-683.594,0.000
1700264826.448,-37.598,-97.168,-510.742,-566.895,0.000
1700264826.452,999.512,-37.598,-211.426,575.195,0.000
1700264826.456,594.727,-33.691,-2.441,760.742,0.000
1700264826.460,-909.668,-113.281,-410.645,-342.285,0.000
1700264826.464,-366.211,-130.859,-645.508,-778.320,0.000
1700264826.468,999.512,-51.270,-368.652,220.215,0.000
1700264826.472,885.742,-31.250,-212.402,768.555,0.000
1700264826.475,-506.836,-129.883,-476.074,-123.535,0.000
1700264826.479,-689.941,-195.312,-745.117,-984.863,0.000
1700264826.483,780.762,-128.418,-617.676,-242.676,0.000
1700264826.487,999.512,-33.203,-260.742,552.246,0.000
1700264826.491,-163.086,-92.285,-430.176,63.477,0.000
1700264826.495,-1000.000,-176.270,-741.211,-981.934,0.000
1700264826.499,210.449,-100.098,-528.809,-626.465,0.000
1700264826.503,999.512,-13.672,-226.074,426.758,0.000
1700264826.507,196.289,-53.711,-339.844,405.762,0.000
1700264826.511,-1000.000,-142.090,-693.848,-695.801,0.000
1700264826.514,-184.082,-97.656,-557.129,-753.906,0.000
1700264826.518,999.512,-25.879,-303.711,346.191,0.000
1700264826.522,558.594,-64.453,-413.086,759.277,0.000
1700264826.526,-890.137,-168.457,-684.082,-204.590,0.000
1700264826.530,-511.719,-139.160,-629.883,-821.289,0.000
1700264826.534,965.332,-20.996,-359.375,111.328,0.000
1700264826.538,902.344,-23.926,-301.758,867.676,0.000
1700264826.542,-443.848,-99.609,-536.133,143.555,0.000
1700264826.546,-866.211,-104.980,-618.164,-842.285,0.000
1700264826.550,551.270,-43.945,-387.207,-147.949,0.000
1700264826.554,999.512,-30.762,-298.828,855.957,0.000
1700264826.557,-131.836,-85.938,-452.637,490.234,0.000
1700264826.561,-1000.000,-128.906,-601.562,-657.227,0.000
1700264826.565,48.340,-73.730,-491.211,-357.910,0.000
1700264826.569,999.512,-65.918,-459.473,787.598,0.000
1700264826.573,248.047,-109.863,-524.414,837.402,0.000
1700264826.577,-1000.000,-138.184,-601.074,-354.004,0.000
1700264826.581,-305.176,-100.098,-534.668,-594.238,0.000
1700264826.585,999.512,-65.430,-436.035,557.617,0.000
1700264826.589,604.004,-71.289,-346.680,995.117,0.000
1700264826.593,-872.559,-100.098,-420.898,-50.293,0.000
1700264826.597,-615.234,-107.422,-549.316,-716.309,0.000
1700264826.601,857.422,-49.805,-351.562,199.219,0.000
1700264826.604,923.340,-37.109,-200.195,964.355,0.000
1700264826.608,-400.879,-93.262,-372.070,303.711,0.000
1700264826.612,-948.242,-149.902,-616.211,-695.312,0.000
1700264826.616,425.781,-114.746,-510.254,-82.520,0.000
1700264826.620,999.512,-58.105,-284.668,883.789,0.000
1700264826.624,-83.496,-77.148,-288.086,559.082,0.000
1700264826.628,-1000.000,-158.691,-603.027,-574.219,0.000
1700264826.632,-49.316,-143.066,-603.027,-372.070,0.000
1700264826.636,999.512,-45.410,-240.723,684.570,0.000
1700264826.639,312.012,-40.527,-186.035,789.062,0.000
1700264826.644,-1000.000,-151.367,-612.305,-260.742,0.000
1700264826.647,-389.160,-134.766,-618.164,-596.680,0.000
1700264826.651,999.512,-29.785,-166.992,403.809,0.000
1700264826.655,714.355,-45.898,-29.297,945.801,0.000
1700264826.659,-699.707,-131.348,-378.906,92.773,0.000
1700264826.663,-666.016,-144.531,-614.258,-687.012,0.000
1700264826.667,733.887,-57.617,-353.027,90.820,0.000
1700264826.671,999.512,-18.555,-208.984,937.500,0.000
1700264826.675,-247.070,-114.258,-554.199,443.359,0.000
1700264826.679,-1000.000,-162.109,-722.656,-628.418,0.000
1700264826.682,247.559,-29.785,-325.684,-234.863,0.000
1700264826.686,999.512,24.902,-25.391,828.613,0.000
1700264826.690,90.332,-24.414,-105.957,683.105,0.000
1700264826.694,-1000.000,-84.961,-492.188,-467.773,0.000
1700264826.698,-148.926,-48.340,-393.555,-445.801,0.000
1700264826.702,999.512,-22.949,-232.422,686.035,0.000
1700264826.706,487.793,-48.828,-283.203,916.016,0.000
1700264826.710,-1000.000,-110.352,-549.316,-148.926,0.000
1700264826.714,-436.523,-95.215,-540.039,-581.543,0.000
1700264826.718,999.512,-13.184,-219.238,378.906,0.000
1700264826.722,897.949,-40.039,-213.379,999.512,0.000
1700264826.725,-499.512,-81.055,-363.281,238.281,0.000
1700264826.729,-785.156,-77.637,-413.574,-714.355,0.000
1700264826.733,659.180,-37.109,-330.566,55.664,0.000
1700264826.737,999.512,-6.348,-91.309,994.141,0.000
1700264826.741,-126.465,-38.574,-60.059,507.812,0.000
1700264826.745,-1000.000,-100.098,-412.109,-602.539,0.000
1700264826.749,173.340,-64.941,-425.781,-211.426,0.000
1700264826.753,999.512,-10.742,-112.305,862.793,0.000
1700264826.757,282.227,-56.152,-115.723,762.207,0.000
1700264826.761,-1000.000,-135.742,-508.789,-418.457,0.000
1700264826.765,-200.684,-129.883,-579.102,-449.707,0.000
1700264826.768,999.512,-62.012,-345.215,632.324,0.000
1700264826.772,679.688,-10.254,76.660,873.535,0.000
1700264826.776,-822.754,-95.703,-265.137,-120.605,0.000
1700264826.780,-491.699,-114.746,-519.531,-695.801,0.000
1700264826.784,970.703,-27.832,-191.406,197.266,0.000
1700264826.788,985.840,-1.953,103.027,874.512,0.000
1700264826.792,-323.242,-76.172,-200.195,176.758,0.000
1700264826.796,-843.262,-145.508,-610.840,-793.945,0.000
1700264826.800,548.340,-77.148,-354.492,-235.840,0.000
1700264826.804,999.512,-37.109,-184.570,712.402,0.000
1700264826.808,41.504,-98.145,-349.609,370.605,0.000
1700264826.811,-1000.000,-184.082,-678.711,-743.652,0.000
1700264826.815,55.664,-112.793,-524.414,-568.359,0.000
1700264826.819,999.512,-21.484,-241.211,450.195,0.000
1700264826.823,405.762,-55.664,-279.297,530.762,0.000
1700264826.827,-1000.000,-129.883,-637.207,-560.059,0.000
1700264826.831,-271.973,-93.262,-548.828,-819.336,0.000
1700264826.835,999.512,-17.090,-224.609,223.145,0.000
1700264826.839,825.684,-42.480,-284.180,749.512,0.000
1700264826.843,-635.742,-119.141,-533.691,-172.363,0.000
1700264826.847,-562.500,-117.188,-558.105,-900.391,0.000
1700264826.850,889.160,-54.199,-393.066,7.324,0.000
1700264826.854,999.512,-67.871,-409.180,874.512,0.000
1700264826.858,-121.582,-125.977,-614.258,270.996,0.000
1700264826.862,-909.180,-103.516,-563.965,-846.680,0.000
1700264826.866,443.359,-40.527,-368.164,-317.871,0.000
1700264826.870,999.512,-31.250,-262.207,742.676,0.000
1700264826.874,187.012,-85.449,-392.578,538.574,0.000
1700264826.878,-1000.000,-129.883,-595.215,-610.352,0.000
1700264826.882,-23.926,-76.172,-461.426,-509.766,0.000
1700264826.886,999.512,-12.695,-246.094,583.496,0.000
1700264826.890,565.918,-21.973,-110.840,759.766,0.000
1700264826.893,-939.453,-98.145,-451.660,-273.438,0.000
1700264826.897,-321.289,-95.703,-579.590,-615.723,0.000
1700264826.901,999.512,-62.988,-424.805,425.293,0.000
1700264826.905,894.043,-37.598,-224.609,948.730,0.000
1700264826.909,-505.859,-72.754,-252.930,44.434,0.000
1700264826.913,-633.789,-125.000,-549.316,-722.656,0.000
1700264826.917,811.523,-49.805,-327.637,81.543,0.000
1700264826.921,999.512,-2.930,-2.441,941.406,0.000
1700264826.925,-62.012,-56.152,-143.066,421.875,0.000
1700264826.929,-961.426,-138.184,-597.656,-625.000,0.000
1700264826.932,343.750,-94.238,-528.809,-191.895,0.000
1700264826.936,999.512,-6.836,-133.301,781.738,0.000
1700264826.940,264.160,-41.992,-116.699,634.277,0.000
1700264826.944,-1000.000,-169.922,-641.113,-438.477,0.000
1700264826.948,-100.098,-139.160,-649.414,-463.379,0.000
1700264826.952,999.512,-5.371,-216.309,529.785,0.000
1700264826.956,653.320,-7.812,-119.141,801.270,0.000
1700264826.960,-855.957,-104.980,-422.363,-227.539,0.000
1700264826.964,-435.547,-91.309,-490.234,-770.996,0.000
1700264826.967,999.512,-6.348,-251.953,152.832,0.000
1700264826.972,962.891,-12.695,-173.828,823.730,0.000
1700264826.975,-376.953,-95.703,-450.195,61.523,0.000
1700264826.979,-778.320,-119.629,-606.445,-871.582,0.000
1700264826.983,643.066,-33.691,-332.520,-201.660,0.000
1700264826.987,999.512,-5.371,-182.129,711.426,0.000
1700264826.991,-15.137,-86.914,-410.645,293.945,0.000
1700264826.995,-1000.000,-134.766,-688.965,-830.566,0.000
1700264826.999,140.625,-36.133,-423.340,-601.562,0.000
1700264827.003,999.512,-7.812,-330.566,419.922,0.000
1700264827.007,334.473,-69.336,-478.516,412.109,0.000
1700264827.011,-1000.000,-102.539,-597.656,-696.289,0.000
1700264827.014,-240.234,-48.828,-532.227,-871.094,0.000
1700264827.018,999.512,-12.695,-450.684,140.625,0.000
1700264827.022,684.570,-32.227,-496.582,526.367,0.000
1700264827.026,-811.523,-88.379,-589.844,-426.758,0.000
1700264827.030,-561.523,-102.051,-639.160,-1000.000,0.000
1700264827.034,915.039,-40.527,-522.949,-187.012,0.000
1700264827.038,965.332,-40.527,-501.953,557.617,0.000
1700264827.042,-350.098,-100.098,-652.344,-140.625,0.000
1700264827.046,-918.457,-123.535,-788.574,-1000.000,0.000
1700264827.050,470.703,-94.238,-785.156,-514.648,0.000
1700264827.053,999.512,-54.199,-612.793,381.348,0.000
1700264827.057,-80.566,-33.203,-504.395,-15.137,0.000
1700264827.061,-1000.000,-112.305,-812.988,-979.492,0.000
1700264827.065,-12.207,-78.125,-729.004,-738.770,0.000
1700264827.069,999.512,-4.395,-450.684,228.027,0.000
1700264827.073,344.727,-21.484,-437.500,374.512,0.000
1700264827.077,-1000.000,-111.328,-764.160,-624.512,0.000
1700264827.081,-326.660,-101.074,-781.738,-868.164,0.000
1700264827.085,999.512,-20.996,-511.230,148.438,0.000
1700264827.089,777.344,-11.230,-460.449,708.008,0.000
1700264827.093,-692.871,-81.543,-697.754,-171.875,0.000
1700264827.096,-647.461,-121.582,-829.102,-845.703,0.000
1700264827.100,813.477,1.465,-532.227,-33.203,0.000
1700264827.104,999.512,40.039,-350.586,743.164,0.000
1700264827.108,-234.863,-66.895,-596.680,220.703,0.000
1700264827.112,-989.746,-114.258,-802.734,-814.453,0.000
1700264827.116,328.125,-37.109,-587.891,-334.473,0.000
1700264827.120,999.512,10.742,-419.922,703.125,0.000
1700264827.124,93.262,-51.758,-540.527,545.898,0.000
1700264827.128,-1000.000,-124.512,-830.566,-592.285,0.000
1700264827.132,-108.398,-73.242,-727.051,-532.715,0.000
1700264827.136,999.512,-6.348,-458.496,562.988,0.000
1700264827.139,490.723,-57.617,-560.059,828.613,0.000
1700264827.143,-1000.000,-128.906,-820.312,-250.488,0.000
1700264827.147,-429.688,-70.801,-666.016,-730.469,0.000
1700264827.151,999.512,3.418,-394.531,280.762,0.000
1700264827.155,885.254,-49.805,-487.305,978.027,0.000
1700264827.159,-536.621,-132.812,-735.840,152.344,0.000
1700264827.163,-788.574,-105.469,-696.777,-766.602,0.000
1700264827.167,663.574,-27.344,-529.297,9.766,0.000
1700264827.171,999.512,-17.578,-410.645,905.273,0.000
1700264827.175,-165.527,-95.703,-494.629,390.137,0.000
1700264827.179,-1000.000,-165.039,-771.973,-668.457,0.000
1700264827.182,198.242,-92.773,-601.562,-270.508,0.000
1700264827.186,999.512,-57.129,-456.055,786.133,0.000
1700264827.190,178.711,-68.848,-484.375,658.203,0.000
1700264827.194,-1000.000,-115.234,-664.062,-541.504,0.000
1700264827.198,-198.730,-122.070,-713.379,-537.598,0.000
1700264827.202,999.512,-42.480,-413.086,540.039,0.000
1700264827.206,586.914,-22.461,-277.832,828.613,0.000
1700264827.210,-925.781,-91.309,-550.781,-171.387,0.000
1700264827.214,-494.629,-95.703,-693.848,-691.406,0.000
1700264827.218,970.703,-8.301,-485.352,255.859,0.000
1700264827.221,944.824,26.855,-315.430,945.801,0.000
1700264827.225,-414.062,-48.828,-521.484,220.703,0.000
1700264827.229,-833.984,-124.023,-808.105,-645.508,0.000
1700264827.233,592.773,-38.086,-606.445,20.996,0.000
1700264827.237,999.512,66.895,-214.355,884.277,0.000
1700264827.241,-73.242,-10.742,-394.043,558.594,0.000
1700264827.245,-1000.000,-87.891,-607.910,-507.324,0.000
1700264827.249,45.898,-29.785,-437.012,-246.094,0.000
1700264827.253,999.512,20.996,-125.488,795.898,0.000
1700264827.257,250.488,-45.410,-128.418,842.773,0.000
1700264827.261,-1000.000,-164.062,-618.164,-241.211,0.000
1700264827.264,-324.219,-105.469,-514.648,-444.824,0.000
1700264827.268,999.512,-15.137,-234.863,596.191,0.000
1700264827.272,644.531,-64.941,-304.199,999.512,0.000
1700264827.276,-846.191,-199.707,-655.273,213.867,0.000
1700264827.280,-660.645,-157.715,-616.699,-496.582,0.000
1700264827.284,790.527,-18.555,-278.809,322.754,0.000
1700264827.288,988.281,-18.066,-66.895,999.512,0.000
1700264827.292,-333.984,-109.863,-285.645,527.832,0.000
1700264827.296,-925.293,-145.996,-603.027,-395.996,0.000
1700264827.300,416.992,-26.367,-193.359,192.871,0.000
1700264827.303,999.512,16.113,52.734,999.512,0.000
1700264827.307,117.676,-37.598,-83.984,746.582,0.000
1700264827.311,-1000.000,-86.914,-394.043,-238.281,0.000
1700264827.315,-20.996,-35.645,-314.941,-38.574,0.000
1700264827.319,999.512,-12.207,-237.305,917.480,0.000
1700264827.323,475.098,-60.547,-375.000,940.918,0.000
1700264827.327,-1000.000,-71.777,-422.363,-82.031,0.000
1700264827.331,-330.566,-27.344,-312.012,-421.875,0.000
1700264827.335,999.512,10.742,-109.863,593.750,0.000
1700264827.339,888.672,28.320,85.449,999.512,0.000
1700264827.342,-562.500,-22.461,-113.281,220.215,0.000
1700264827.346,-579.590,-51.270,-407.715,-527.832,0.000
1700264827.350,860.352,-2.930,-266.602,331.543,0.000
1700264827.354,999.512,33.203,87.402,999.512,0.000
1700264827.358,-22.461,-7.324,-41.504,497.559,0.000
1700264827.362,-924.316,-90.332,-477.051,-590.332,0.000
1700264827.366,405.762,-54.199,-381.348,-189.941,0.000
1700264827.370,999.512,17.090,-68.359,759.766,0.000
1700264827.374,250.000,3.906,-20.996,511.719,0.000
1700264827.378,-1000.000,-92.773,-459.961,-637.207,0.000
1700264827.382,-54.199,-75.684,-540.527,-539.062,0.000
1700264827.385,999.512,57.129,-97.168,489.258,0.000
1700264827.389,622.559,56.152,17.578,650.879,0.000
1700264827.393,-886.230,-89.355,-558.594,-395.020,0.000
1700264827.397,-434.570,-63.477,-623.535,-883.301,0.000
1700264827.401,999.512,72.754,-186.523,19.043,0.000
1700264827.405,892.578,75.684,-16.113,613.281,0.000
1700264827.409,-503.906,-42.969,-366.211,-179.688,0.000
1700264827.413,-806.152,-97.168,-686.523,-1000.000,0.000
1700264827.417,638.184,8.789,-386.719,-352.051,0.000
1700264827.421,999.512,66.406,-131.348,529.297,0.000
1700264827.425,-155.273,-44.922,-473.145,116.211,0.000
1700264827.428,-1000.000,-112.305,-806.152,-929.688,0.000
1700264827.432,124.512,33.203,-437.988,-623.535,0.000
1700264827.436,999.512,85.449,-189.941,442.871,0.000
1700264827.440,100.098,24.414,-302.246,375.977,0.000
1700264827.444,-1000.000,-38.574,-522.949,-710.449,0.000
1700264827.448,-194.824,-0.977,-485.352,-727.051,0.000
1700264827.452,999.512,83.008,-291.992,363.281,0.000
1700264827.456,381.348,84.473,-229.004,642.090,0.000
1700264827.460,-1000.000,-38.086,-548.828,-418.457,0.000
1700264827.464,-661.621,-20.508,-519.043,-917.480,0.000
1700264827.468,693.848,90.332,-206.055,9.766,0.000
1700264827.471,563.965,54.688,-239.258,779.785,0.000
1700264827.475,-721.680,10.254,-396.484,-10.742,0.000
1700264827.479,-1000.000,23.926,-439.453,-1000.000,0.000
1700264827.483,136.719,62.500,-348.145,-258.301,0.000
1700264827.487,480.957,97.656,-159.180,740.234,0.000
1700264827.491,-562.012,67.871,-189.453,329.590,0.000
1700264827.495,-1000.000,-9.277,-551.270,-779.297,0.000
1700264827.499,-372.559,28.320,-507.812,-451.660,0.000
1700264827.503,288.574,82.520,-366.211,633.789,0.000
1700264827.507,-528.809,48.828,-320.312,621.094,0.000
1700264827.510,-1000.000,-45.898,-561.035,-512.207,0.000
1700264827.514,-604.492,-57.617,-721.191,-630.859,0.000
1700264827.518,-12.695,31.250,-505.371,422.363,0.000
1700264827.522,-578.613,104.492,-219.238,741.699,0.000
1700264827.526,-1000.000,-4.395,-490.723,-262.207,0.000
1700264827.530,-909.180,-42.969,-708.984,-914.062,0.000
1700264827.534,-404.297,57.617,-412.598,-63.477,0.000
1700264827.538,-611.816,49.316,-308.105,625.977,0.000
1700264827.542,-1000.000,-62.988,-628.418,-76.172,0.000
1700264827.546,-1000.000,-103.027,-783.691,-1000.000,0.000
1700264827.550,-618.164,-12.695,-586.914,-596.191,0.000
1700264827.554,-469.727,19.531,-486.328,324.219,0.000
1700264827.557,-950.684,-34.180,-606.934,-33.691,0.000
1700264827.561,-1000.000,-143.066,-848.633,-1000.000,0.000
1700264827.565,-616.211,-62.012,-750.488,-855.957,0.000
1700264827.569,-52.246,74.219,-465.332,-79.102,0.000
1700264827.573,-577.148,7.812,-575.684,-34.180,0.000
1700264827.577,-1000.000,-104.980,-887.207,-818.848,0.000
1700264827.581,-595.703,-49.805,-812.500,-1000.000,0.000
1700264827.585,591.309,36.133,-565.430,-358.398,0.000
1700264827.589,391.602,-4.883,-598.633,104.980,0.000
1700264827.593,-912.109,-104.980,-868.652,-544.922,0.000
1700264827.596,-641.602,-98.145,-896.484,-1000.000,0.000
1700264827.600,738.281,-6.348,-736.816,-525.391,0.000
1700264827.604,999.512,-24.902,-693.848,241.699,0.000
1700264827.608,-40.039,-114.258,-877.441,-250.488,0.000
1700264827.612,-855.957,-101.562,-894.043,-1000.000,0.000
1700264827.616,508.789,-13.184,-724.121,-778.320,0.000
1700264827.620,999.512,24.902,-634.766,35.156,0.000
1700264827.624,386.719,-4.395,-680.176,-160.645,0.000
1700264827.628,-809.570,-42.480,-819.336,-1000.000,0.000
1700264827.632,213.379,1.465,-831.055,-864.258,0.000
1700264827.635,999.512,80.566,-638.184,-17.578,0.000
1700264827.639,837.402,82.520,-601.562,171.875,0.000
1700264827.643,-350.098,2.930,-853.516,-702.148,0.000
1700264827.647,-13.672,3.418,-862.305,-980.957,0.000
1700264827.651,999.512,73.242,-712.402,-106.445,0.000
1700264827.655,999.512,129.883,-549.805,478.516,0.000
1700264827.659,24.414,84.473,-647.461,-328.125,0.000
1700264827.663,-180.176,26.367,-844.727,-1000.000,0.000
1700264827.667,961.914,112.305,-646.973,-334.473,0.000
1700264827.671,999.512,166.504,-458.496,541.992,0.000
1700264827.675,268.066,116.699,-514.648,93.262,0.000
1700264827.678,-470.703,4.395,-838.867,-951.172,0.000
1700264827.682,669.434,56.641,-758.301,-547.363,0.000
1700264827.686,999.512,174.805,-373.535,494.629,0.000
1700264827.690,546.875,113.281,-485.352,446.289,0.000
1700264827.694,-627.441,-50.781,-880.371,-623.535,0.000
1700264827.698,151.367,-26.855,-834.961,-660.156,0.000
1700264827.702,999.512,135.742,-418.945,370.117,0.000
1700264827.706,910.156,130.371,-361.816,716.309,0.000
1700264827.710,-476.562,-1.953,-645.996,-255.859,0.000
1700264827.713,-323.242,0.977,-703.613,-800.293,0.000
1700264827.717,999.512,110.840,-501.465,169.922,0.000
1700264827.721,999.512,126.953,-306.641,900.391,0.000
1700264827.725,-113.281,20.020,-593.750,177.734,0.000
1700264827.729,-648.438,-8.301,-713.867,-773.438,0.000
1700264827.733,756.836,96.191,-401.855,-95.703,0.000
1700264827.737,999.512,116.211,-277.832,909.668,0.000
1700264827.741,203.613,25.879,-516.113,580.566,0.000
1700264827.745,-980.469,-33.203,-735.840,-584.473,0.000
1700264827.749,200.195,56.152,-477.051,-357.422,0.000
1700264827.753,999.512,111.328,-236.816,768.555,0.000
1700264827.757,510.254,33.691,-396.973,861.328,0.000
1700264827.760,-968.750,-27.344,-653.320,-298.828,0.000
1700264827.764,-220.215,33.691,-538.086,-486.328,0.000
1700264827.768,999.512,98.633,-324.219,614.258,0.000
1700264827.772,868.652,89.844,-215.332,999.512,0.000
1700264827.776,-590.332,14.648,-381.348,151.855,0.000
1700264827.780,-504.395,0.977,-522.949,-509.277,0.000
1700264827.784,945.312,66.895,-339.844,399.902,0.000
1700264827.788,999.512,69.336,-257.812,999.512,0.000
1700264827.792,-114.258,8.789,-351.562,466.797,0.000
1700264827.796,-881.836,-27.344,-494.629,-524.902,0.000
1700264827.800,501.953,8.789,-508.789,84.473,0.000
1700264827.803,999.512,65.430,-227.051,999.512,0.000
1700264827.807,134.277,87.402,-27.344,707.031,0.000
1700264827.811,-1000.000,-11.719,-483.887,-388.672,0.000
1700264827.815,-29.785,61.035,-385.742,-199.707,0.000
1700264827.819,999.512,175.293,56.152,833.496,0.000
1700264827.823,495.605,148.438,139.160,956.055,0.000
1700264827.827,-1000.000,26.367,-325.684,-27.832,0.000
1700264827.831,-354.980,26.367,-432.617,-300.781,0.000
1700264827.835,999.512,119.629,-44.434,665.039,0.000
1700264827.839,835.449,131.348,162.598,999.512,0.000
1700264827.843,-627.441,49.316,-109.375,333.984,0.000
1700264827.846,-655.273,-38.574,-532.227,-260.742,0.000
1700264827.850,822.754,50.781,-225.586,512.207,0.000
1700264827.854,999.512,125.488,221.191,999.512,0.000
1700264827.858,-171.387,16.602,-40.039,605.469,0.000
1700264827.862,-1000.000,-64.941,-422.363,-343.750,0.000
1700264827.866,262.695,34.668,-68.848,82.031,0.000
1700264827.870,999.512,111.328,278.809,988.770,0.000
1700264827.874,151.367,16.602,26.367,801.270,0.000
1700264827.878,-1000.000,-127.441,-418.945,-270.508,0.000
1700264827.882,-164.551,-78.125,-315.430,-270.020,0.000
1700264827.885,999.512,2.930,101.562,757.812,0.000
1700264827.889,500.000,-54.688,15.137,999.512,0.000
1700264827.893,-997.070,-161.621,-478.027,-38.086,0.000
1700264827.897,-494.141,-83.984,-220.215,-643.555,0.000
1700264827.901,981.445,-4.883,108.398,306.152,0.000
1700264827.905,862.793,-26.855,179.688,937.988,0.000
1700264827.909,-561.523,-125.488,-146.484,85.449,0.000
1700264827.913,-855.957,-150.879,-443.359,-884.766,0.000
1700264827.917,577.637,-48.340,-120.605,-242.676,0.000
1700264827.921,999.512,-18.555,104.004,606.445,0.000
1700264827.925,-177.734,-88.379,-139.160,66.895,0.000
1700264827.928,-1000.000,-182.617,-563.965,-998.047,0.000
1700264827.932,91.309,-125.000,-433.105,-692.383,0.000
1700264827.936,999.512,-89.355,-350.098,306.641,0.000
1700264827.940,146.484,-90.332,-377.441,150.879,0.000
1700264827.944,-1000.000,-148.926,-521.484,-871.094,0.000
1700264827.948,-270.020,-157.227,-617.188,-887.207,0.000
1700264827.952,999.512,-74.219,-393.066,-34.180,0.000
1700264827.956,540.039,-63.477,-255.371,272.461,0.000
1700264827.960,-959.961,-155.273,-522.949,-569.336,0.000
1700264827.964,-543.945,-186.523,-696.777,-989.746,0.000
1700264827.968,913.574,-107.422,-528.320,-184.570,0.000
1700264827.971,947.266,-60.547,-326.660,520.020,0.000
1700264827.975,-416.992,-145.996,-546.875,-116.699,0.000
1700264827.979,-866.211,-238.281,-861.816,-969.238,0.000
1700264827.983,535.645,-137.695,-640.625,-307.129,0.000
1700264827.987,999.512,0.000,-212.402,630.371,0.000
1700264827.991,13.184,-78.125,-356.934,398.438,0.000
1700264827.995,-1000.000,-178.711,-602.539,-630.859,0.000
1700264827.999,28.809,-108.398,-469.238,-402.344,0.000
1700264828.003,999.512,-12.695,-176.270,652.832,0.000
1700264828.007,374.023,-47.852,-184.570,732.422,0.000
1700264828.010,-1000.000,-163.574,-603.516,-368.652,0.000
1700264828.014,-298.828,-113.281,-474.121,-633.301,0.000
1700264828.018,999.512,-30.273,-238.281,418.945,0.000
1700264828.022,758.789,-52.734,-236.328,933.105,0.000
1700264828.026,-730.469,-189.453,-558.105,72.266,0.000
1700264828.030,-637.695,-178.711,-652.832,-662.109,0.000
1700264828.034,828.125,-11.230,-213.867,110.352,0.000
1700264828.038,999.512,-13.672,-192.871,941.895,0.000
1700264828.042,-225.098,-109.863,-407.227,327.637,0.000
1700264828.046,-954.102,-133.301,-513.184,-694.336,0.000
1700264828.050,385.254,-56.152,-332.520,-153.809,0.000
1700264828.053,999.512,-45.898,-215.820,853.027,0.000
1700264828.057,105.469,-120.117,-366.211,635.254,0.000
1700264828.061,-1000.000,-175.293,-519.043,-534.180,0.000
1700264828.065,-100.586,-108.887,-408.203,-472.168,0.000
1700264828.069,999.512,-87.402,-389.648,604.004,0.000
1700264828.073,410.156,-141.113,-510.254,729.492,0.000
1700264828.077,-1000.000,-175.781,-579.102,-480.469,0.000
1700264828.081,-421.875,-155.273,-615.234,-893.555,0.000
1700264828.085,999.512,-69.824,-388.672,77.637,0.000
1700264828.088,751.465,-33.203,-233.887,557.129,0.000
1700264828.092,-707.031,-111.816,-477.051,-307.617,0.000
1700264828.096,-771.484,-166.016,-691.406,-1000.000,0.000
1700264828.100,683.105,-82.031,-488.770,-361.816,0.000
1700264828.104,985.352,-37.598,-319.336,396.973,0.000
1700264828.108,-274.902,-116.699,-509.277,-187.500,0.000
1700264828.112,-1000.000,-195.312,-763.184,-1000.000,0.000
1700264828.116,185.547,-155.762,-740.723,-755.371,0.000
1700264828.120,999.512,-72.266,-554.199,-43.945,0.000
1700264828.124,-91.797,-81.055,-563.965,-346.191,0.000
1700264828.128,-1000.000,-187.500,-863.281,-1000.000,0.000
1700264828.131,-298.828,-182.129,-862.305,-1000.000,0.000
1700264828.135,857.422,-96.191,-676.758,-627.441,0.000
1700264828.139,61.523,-125.977,-739.746,-557.617,0.000
1700264828.143,-1000.000,-257.812,-934.082,-964.355,0.000
1700264828.147,-638.672,-234.375,-946.777,-1000.000,0.000
1700264828.151,602.051,-100.586,-720.215,-825.684,0.000
1700264828.155,391.113,-84.473,-657.227,-536.133,0.000
1700264828.159,-826.172,-181.641,-861.816,-813.965,0.000
1700264828.163,-935.059,-230.957,-940.918,-1000.000,0.000
1700264828.167,298.340,-136.719,-894.531,-849.121,0.000
1700264828.171,667.480,-75.684,-815.918,-414.551,0.000
1700264828.174,-435.547,-178.711,-862.305,-646.484,0.000
1700264828.178,-1000.000,-244.629,-976.074,-1000.000,0.000
1700264828.182,-145.996,-77.148,-866.699,-966.309,0.000
1700264828.186,831.055,-10.742,-727.051,-504.395,0.000
1700264828.190,-117.188,-86.426,-784.668,-483.398,0.000
1700264828.194,-1000.000,-164.551,-959.473,-997.559,0.000
1700264828.198,-364.258,-111.816,-911.621,-998.535,0.000
1700264828.202,981.445,-26.855,-804.199,-416.992,0.000
1700264828.206,417.969,-25.391,-802.734,-50.781,0.000
1700264828.210,-999.512,-120.605,-906.738,-685.547,0.000
1700264828.214,-598.145,-106.445,-933.105,-1000.000,0.000
1700264828.217,821.289,14.160,-790.527,-452.148,0.000
1700264828.221,989.258,1.465,-736.816,314.941,0.000
1700264828.225,-387.207,-33.691,-843.750,-277.832,0.000
1700264828.229,-854.980,-20.508,-877.930,-1000.000,0.000
1700264828.233,521.484,33.203,-820.801,-541.016,0.000
1700264828.237,999.512,76.172,-726.562,376.953,0.000
1700264828.241,138.672,46.387,-736.816,81.055,0.000
1700264828.245,-1000.000,-15.625,-863.281,-950.684,0.000
1700264828.249,188.965,22.949,-848.633,-687.988,0.000
1700264828.253,999.512,83.496,-716.309,374.023,0.000
1700264828.257,647.949,66.895,-646.973,498.535,0.000
1700264828.260,-704.102,-34.180,-848.145,-580.078,0.000
1700264828.264,-64.453,-46.387,-924.316,-751.465,0.000
1700264828.268,999.512,49.316,-710.449,296.875,0.000
1700264828.272,999.512,119.629,-426.758,688.965,0.000
1700264828.276,-210.938,10.254,-700.195,-172.852,0.000
1700264828.280,-209.961,-35.156,-812.500,-804.688,0.000
1700264828.284,999.512,87.402,-513.184,66.895,0.000
1700264828.288,999.512,139.160,-323.242,876.953,0.000
1700264828.292,103.027,16.113,-549.316,297.852,0.000
1700264828.296,-544.922,-60.059,-800.781,-690.430,0.000
1700264828.299,724.121,34.180,-584.473,-145.996,0.000
1700264828.303,999.512,76.660,-441.406,868.652,0.000
1700264828.307,340.820,17.090,-551.270,613.770,0.000
1700264828.311,-935.547,-104.980,-833.984,-454.590,0.000
1700264828.315,91.309,-22.461,-717.773,-352.539,0.000
1700264828.319,999.512,125.488,-382.324,645.996,0.000
1700264828.323,664.062,72.266,-421.875,875.977,0.000
1700264828.327,-823.730,-39.062,-736.328,-166.016,0.000
1700264828.331,-334.961,2.441,-645.020,-559.570,0.000
1700264828.335,999.512,105.469,-298.828,447.266,0.000
1700264828.339,980.469,81.543,-314.453,999.512,0.000
1700264828.342,-403.320,-15.137,-590.332,245.117,0.000
1700264828.346,-672.852,-30.273,-652.344,-562.988,0.000
1700264828.350,776.855,41.504,-467.773,270.996,0.000
1700264828.354,999.512,49.805,-366.211,999.512,0.000
1700264828.358,-5.371,-30.273,-559.570,609.375,0.000
1700264828.362,-1000.000,-13.672,-516.113,-407.715,0.000
1700264828.366,271.973,61.035,-357.910,68.848,0.000
1700264828.370,999.512,81.055,-202.148,999.512,0.000
1700264828.374,256.836,45.898,-180.176,850.586,0.000
1700264828.378,-1000.000,-27.344,-467.773,-56.152,0.000
1700264828.382,-144.531,12.207,-391.113,58.105,0.000
1700264828.385,999.512,83.496,-181.152,920.898,0.000
1700264828.389,677.734,91.797,25.391,999.512,0.000
1700264828.393,-845.215,2.441,-208.008,344.727,0.000
1700264828.397,-431.641,-33.691,-395.020,74.219,0.000
1700264828.401,999.512,-0.977,-283.691,809.082,0.000
1700264828.405,987.305,46.387,-36.621,999.512,0.000
1700264828.409,-368.164,39.062,83.496,614.258,0.000
1700264828.413,-754.883,-29.785,-262.207,114.258,0.000
1700264828.417,670.410,33.691,-49.805,676.758,0.000
1700264828.420,999.512,113.281,344.238,999.512,0.000
1700264828.424,45.410,45.898,232.422,800.293,0.000
1700264828.428,-1000.000,-81.055,-213.379,245.117,0.000
1700264828.432,163.086,-6.348,-30.762,532.227,0.000
1700264828.436,999.512,90.820,340.332,999.512,0.000
1700264828.440,376.465,37.598,314.453,948.242,0.000
1700264828.444,-1000.000,-116.699,-179.199,306.152,0.000
1700264828.448,-225.098,-84.473,-260.254,258.789,0.000
1700264828.452,999.512,51.270,262.207,922.852,0.000
1700264828.456,719.727,46.387,397.461,999.512,0.000
1700264828.460,-780.762,-100.586,-40.039,347.656,0.000
1700264828.463,-559.082,-120.605,-213.867,-240.234,0.000
1700264828.467,923.340,25.879,261.719,467.285,0.000
1700264828.471,979.004,29.297,364.258,999.512,0.000
1700264828.475,-325.684,-77.148,61.035,357.910,0.000
1700264828.479,-935.547,-125.977,-185.547,-749.512,0.000
1700264828.483,436.523,-61.035,23.926,-275.391,0.000
1700264828.487,999.512,-37.109,203.613,564.941,0.000
1700264828.491,-39.551,-114.746,-48.340,81.055,0.000
1700264828.495,-1000.000,-176.758,-416.016,-958.984,0.000
1700264828.499,-89.844,-100.586,-197.754,-863.770,0.000
1700264828.503,999.512,-62.500,30.762,-56.152,0.000
1700264828.506,281.738,-134.277,-180.176,-20.996,0.000
1700264828.510,-1000.000,-199.219,-487.305,-847.168,0.000
1700264828.514,-412.109,-153.320,-454.590,-1000.000,0.000
1700264828.518,999.512,-104.004,-350.586,-304.199,0.000
1700264828.522,645.996,-114.258,-314.941,122.070,0.000
1700264828.526,-837.891,-178.223,-450.195,-586.914,0.000
1700264828.530,-715.332,-187.988,-553.223,-1000.000,0.000
1700264828.534,727.051,-111.816,-450.684,-423.828,0.000
1700264828.538,967.285,-108.887,-374.023,367.188,0.000
1700264828.542,-326.660,-169.434,-467.773,-159.668,0.000
1700264828.545,-1000.000,-209.473,-606.445,-1000.000,0.000
1700264828.549,290.527,-176.758,-566.895,-470.215,0.000
1700264828.553,999.512,-112.793,-314.453,575.684,0.000
1700264828.557,-1.953,-105.957,-160.645,444.336,0.000
1700264828.561,-1000.000,-212.891,-567.871,-527.832,0.000
1700264828.565,-145.508,-148.926,-474.121,-372.070,0.000
1700264828.569,999.512,-37.109,-65.430,709.961,0.000
1700264828.573,410.156,-55.664,15.625,948.242,0.000
1700264828.577,-1000.000,-150.391,-393.066,-70.312,0.000
1700264828.581,-426.758,-132.324,-483.887,-370.117,0.000
1700264828.585,999.512,-45.898,-258.301,626.465,0.000
1700264828.588,824.707,-16.602,-85.449,999.512,0.000
1700264828.592,-615.234,-76.172,-296.387,348.145,0.000
1700264828.596,-773.438,-158.203,-647.461,-338.379,0.000
1700264828.600,666.504,-41.016,-332.520,373.535,0.000
1700264828.604,999.512,71.777,135.254,999.512,0.000
1700264828.608,-208.984,-29.297,-99.121,615.234,0.000
1700264828.612,-1000.000,-104.004,-511.719,-379.883,0.000
1700264828.616,157.715,10.254,-211.914,-45.410,0.000
1700264828.620,999.512,76.660,155.762,912.598,0.000
1700264828.624,110.352,-1.953,-23.926,800.293,0.000
1700264828.628,-1000.000,-95.703,-451.660,-316.406,0.000
1700264828.631,-226.074,-58.594,-417.480,-395.020,0.000
1700264828.635,999.512,33.691,-34.180,635.254,0.000
1700264828.639,510.254,-5.371,-121.094,941.895,0.000
1700264828.643,-976.562,-127.441,-553.711,-97.168,0.000
1700264828.647,-563.477,-69.824,-364.746,-736.816,0.000
1700264828.651,900.391,28.809,12.207,158.203,0.000
1700264828.655,875.000,3.906,91.309,827.637,0.000
1700264828.659,-523.438,-95.703,-280.273,38.574,0.000
1700264828.663,-901.367,-120.117,-421.875,-946.289,0.000
1700264828.667,504.883,-70.312,-241.211,-337.402,0.000
1700264828.671,999.512,-50.781,22.949,478.516,0.000
1700264828.674,-160.645,-127.930,-169.434,-71.289,0.000
1700264828.678,-1000.000,-220.703,-646.973,-1000.000,0.000
1700264828.682,10.742,-158.203,-504.883,-831.543,0.000
1700264828.686,999.512,-138.184,-390.625,-36.621,0.000
1700264828.690,121.582,-148.926,-412.598,-190.430,0.000
1700264828.694,-1000.000,-173.340,-554.199,-976.562,0.000
1700264828.698,-352.051,-165.527,-580.078,-986.816,0.000
1700264828.702,999.512,-95.703,-415.039,-381.348,0.000
1700264828.706,489.258,-66.406,-317.871,-134.277,0.000
1700264828.710,-964.355,-142.578,-515.625,-756.836,0.000
1700264828.714,-661.621,-189.941,-753.906,-1000.000,0.000
1700264828.717,776.367,-104.492,-574.707,-583.008,0.000
1700264828.721,858.887,-43.945,-319.336,-17.090,0.000
1700264828.725,-495.117,-135.254,-576.172,-488.281,0.000
1700264828.729,-953.613,-238.281,-923.340,-1000.000,0.000
1700264828.733,418.457,-138.184,-772.461,-666.504,0.000
1700264828.737,999.512,9.766,-359.863,-45.410,0.000
1700264828.741,-140.137,-60.547,-500.000,-389.648,0.000
1700264828.745,-1000.000,-180.176,-795.898,-1000.000,0.000
1700264828.749,-96.191,-102.539,-654.785,-905.762,0.000
1700264828.753,999.512,-0.977,-439.453,-239.258,0.000
1700264828.756,298.828,-38.574,-469.727,-149.414,0.000
1700264828.760,-1000.000,-147.949,-795.898,-882.812,0.000
1700264828.764,-368.164,-112.305,-720.703,-984.375,0.000
1700264828.768,999.512,-17.578,-485.840,-261.719,0.000
1700264828.772,765.137,-35.156,-527.832,236.328,0.000
1700264828.776,-713.867,-162.109,-778.320,-469.727,0.000
1700264828.780,-712.402,-145.996,-811.523,-1000.000,0.000
1700264828.784,742.188,11.719,-505.371,-419.434,0.000
1700264828.788,999.512,21.484,-404.297,408.691,0.000
1700264828.792,-230.469,-66.406,-600.098,-93.262,0.000
1700264828.795,-994.141,-94.727,-753.906,-1000.000,0.000
1700264828.799,301.270,5.371,-490.723,-556.152,0.000
1700264828.803,999.512,30.762,-388.672,485.840,0.000
1700264828.807,151.367,-35.156,-551.758,358.398,0.000
1700264828.811,-1000.000,-85.449,-716.797,-755.859,0.000
1700264828.815,-112.793,-31.738,-620.605,-656.738,0.000
1700264828.819,999.512,3.906,-531.738,538.086,0.000
1700264828.823,502.441,-37.598,-562.012,667.969,0.000
1700264828.827,-1000.000,-88.867,-694.824,-504.883,0.000
1700264828.831,-391.113,-52.246,-647.949,-718.750,0.000
1700264828.835,999.512,30.762,-320.312,322.266,0.000
1700264828.838,902.832,47.852,-210.938,913.574,0.000
1700264828.842,-505.859,-22.461,-435.059,88.379,0.000
1700264828.846,-723.633,-63.965,-582.031,-667.480,0.000
1700264828.850,714.355,14.648,-426.270,150.879,0.000
1700264828.854,999.512,49.805,-217.285,999.512,0.000
1700264828.858,-104.004,-31.738,-369.629,518.066,0.000
1700264828.862,-915.039,-98.633,-575.684,-398.926,0.000
1700264828.866,454.590,-40.039,-427.734,98.633,0.000
1700264828.870,999.512,21.484,-187.012,907.227,0.000
1700264828.874,243.652,-2.441,-116.211,784.180,0.000
1700264828.878,-1000.000,-114.258,-517.578,-299.805,0.000
1700264828.881,-159.180,-120.117,-603.027,-301.758,0.000
1700264828.885,999.512,-5.859,-265.625,721.191,0.000
1700264828.889,631.836,27.344,-7.812,984.863,0.000
1700264828.893,-883.301,-89.844,-361.816,59.570,0.000
1700264828.897,-505.371,-104.492,-500.000,-423.340,0.000
1700264828.901,970.703,6.348,-0.977,485.352,0.000
1700264828.905,944.824,28.320,214.844,999.512,0.000
1700264828.909,-416.992,-78.613,-209.473,440.430,0.000
1700264828.913,-843.750,-143.066,-577.148,-378.418,0.000
1700264828.917,562.988,-44.434,-246.094,290.039,0.000
1700264828.921,999.512,24.414,110.352,999.512,0.000
1700264828.924,-16.602,-58.105,-132.324,741.211,0.000
1700264828.928,-1000.000,-132.812,-535.645,-148.438,0.000
1700264828.932,71.777,-3.418,-93.262,154.785,0.000
1700264828.936,999.512,61.523,225.586,996.094,0.000
1700264828.940,343.750,8.789,187.500,961.426,0.000
1700264828.944,-1000.000,-82.031,-162.598,237.305,0.000
1700264828.948,-261.719,-28.809,-79.102,269.531,0.000
1700264828.952,999.512,70.312,264.160,969.727,0.000
1700264828.956,755.371,56.152,324.707,999.512,0.000
1700264828.960,-746.094,-63.477,20.996,680.176,0.000
1700264828.964,-552.246,-66.895,-59.570,546.875,0.000
1700264828.967,907.715,52.246,303.711,951.660,0.000
1700264828.971,999.512,20.020,250.488,999.512,0.000
1700264828.975,-217.773,-32.715,185.547,845.215,0.000
1700264828.979,-882.812,-29.785,195.801,726.074,0.000
1700264828.983,502.930,14.648,303.711,937.012,0.000
1700264828.987,999.512,70.801,465.820,987.305,0.000
1700264828.991,119.629,33.691,388.184,954.102,0.000
1700264828.995,-1000.000,-47.363,229.980,734.375,0.000
1700264828.999,10.742,-27.344,247.070,804.199,0.000
1700264829.003,999.512,32.715,381.348,984.863,0.000
1700264829.007,476.074,24.902,373.047,999.512,0.000
1700264829.010,-1000.000,-63.477,173.340,621.094,0.000
1700264829.014,-321.777,-79.102,98.633,551.270,0.000
1700264829.018,999.512,6.348,286.133,958.008,0.000
1700264829.022,807.617,77.637,506.836,999.512,0.000
1700264829.026,-642.578,-26.855,266.113,529.297,0.000
1700264829.030,-681.641,-78.125,160.156,-91.309,0.000
1700264829.034,781.738,14.160,311.035,514.648,0.000
1700264829.038,999.512,53.711,423.828,999.512,0.000
1700264829.042,-215.332,-37.598,198.730,444.336,0.000
1700264829.046,-1000.000,-122.070,-209.473,-737.793,0.000
1700264829.050,276.367,-41.016,10.742,-474.609,0.000
1700264829.053,999.512,-2.441,231.934,431.152,0.000
1700264829.057,85.938,-63.965,70.801,123.535,0.000
1700264829.061,-1000.000,-203.125,-512.695,-895.508,0.000
1700264829.065,-177.734,-134.766,-412.109,-913.574,0.000
1700264829.069,999.512,7.324,171.875,-126.953,0.000
1700264829.073,425.781,-55.664,18.555,30.762,0.000
1700264829.077,-1000.000,-150.391,-453.125,-747.559,0.000
1700264829.081,-471.680,-117.676,-497.559,-1000.000,0.000
1700264829.085,983.887,-33.203,-158.203,-461.426,0.000
1700264829.089,834.961,-56.152,-117.676,48.828,0.000
1700264829.092,-603.516,-121.582,-432.617,-521.973,0.000
1700264829.096,-792.480,-129.883,-524.902,-1000.000,0.000
1700264829.100,635.742,-89.355,-394.043,-559.082,0.000
1700264829.104,999.512,-82.031,-374.023,310.059,0.000
1700264829.108,-114.258,-135.742,-552.246,-56.641,0.000
1700264829.112,-1000.000,-123.535,-520.508,-1000.000,0.000
1700264829.116,168.945,-65.918,-363.770,-568.848,0.000
1700264829.120,999.512,-18.555,-70.801,470.215,0.000
1700264829.124,187.988,-38.574,-39.551,386.230,0.000
1700264829.128,-1000.000,-123.535,-427.734,-693.359,0.000
1700264829.131,-203.613,-107.910,-472.656,-684.082,0.000
1700264829.135,999.512,-31.250,-256.348,446.289,0.000
1700264829.139,603.516,-10.742,-4.395,793.945,0.000
1700264829.143,-914.551,-97.656,-295.410,-178.711,0.000
1700264829.147,-499.023,-110.840,-473.633,-678.223,0.000
1700264829.151,971.680,-83.496,-424.316,318.359,0.000
1700264829.155,931.641,-41.992,-148.438,976.562,0.000
1700264829.159,-435.059,-39.551,-80.566,175.781,0.000
1700264829.163,-828.125,-106.445,-478.516,-674.805,0.000
1700264829.167,582.031,-35.645,-243.164,16.113,0.000
1700264829.170,999.512,32.715,138.184,934.082,0.000
1700264829.174,-7.324,-46.387,-99.609,567.871,0.000
1700264829.178,-1000.000,-144.043,-560.547,-523.926,0.000
1700264829.182,101.562,-62.500,-351.562,-266.113,0.000
1700264829.186,999.512,32.715,57.129,723.633,0.000
1700264829.190,330.078,-5.859,57.617,712.402,0.000
1700264829.194,-1000.000,-135.742,-503.906,-358.887,0.000
1700264829.198,-268.555,-124.023,-641.602,-579.590,0.000
1700264829.202,999.512,8.301,-124.512,342.773,0.000
1700264829.206,717.285,26.855,116.699,654.785,0.000
1700264829.209,-776.367,-107.910,-338.379,-314.941,0.000
1700264829.213,-614.746,-125.488,-580.078,-1000.000,0.000
1700264829.217,864.746,12.695,-103.516,-350.586,0.000
1700264829.221,982.422,20.020,81.543,268.555,0.000
1700264829.225,-324.219,-83.984,-302.734,-382.324,0.000
1700264829.229,-956.055,-146.484,-678.223,-1000.000,0.000
1700264829.233,400.391,-59.082,-472.168,-844.727,0.000
1700264829.237,999.512,-1.953,-339.844,-375.000,0.000
1700264829.241,-13.672,-90.332,-576.660,-602.539,0.000
1700264829.245,-1000.000,-168.457,-811.523,-1000.000,0.000
1700264829.249,-88.867,-73.242,-630.371,-1000.000,0.000
1700264829.253,999.512,3.906,-446.777,-669.434,0.000
1700264829.256,324.219,-65.918,-571.777,-591.309,0.000
1700264829.260,-1000.000,-153.320,-779.785,-982.910,0.000
1700264829.264,-408.691,-112.793,-792.480,-1000.000,0.000
1700264829.268,999.512,-59.570,-655.273,-664.062,0.000
1700264829.272,721.680,-69.824,-634.766,-323.242,0.000
1700264829.276,-756.348,-128.906,-753.418,-793.457,0.000
1700264829.280,-749.023,-145.996,-847.168,-1000.000,0.000
1700264829.284,668.945,-83.008,-755.859,-797.852,0.000
1700264829.288,860.352,-75.195,-724.121,-364.746,0.000
1700264829.292,-375.000,-136.230,-780.762,-661.133,0.000
1700264829.296,-1000.000,-183.105,-894.043,-1000.000,0.000
1700264829.299,259.277,-138.184,-899.902,-828.125,0.000
1700264829.303,999.512,-80.078,-746.094,-151.367,0.000
1700264829.307,-0.977,-57.617,-624.023,-313.477,0.000
1700264829.311,-1000.000,-145.020,-895.996,-1000.000,0.000
1700264829.315,-149.902,-117.188,-834.961,-845.703,0.000
1700264829.319,999.512,-17.578,-551.270,-29.297,0.000
1700264829.323,440.430,-29.785,-537.598,276.367,0.000
1700264829.327,-1000.000,-132.324,-817.871,-611.328,0.000
1700264829.331,-450.195,-127.441,-823.730,-898.926,0.000
1700264829.335,999.512,-48.340,-623.535,60.059,0.000
1700264829.338,846.191,-7.324,-518.066,664.062,0.000
1700264829.342,-573.730,-65.918,-654.785,-75.684,0.000
1700264829.346,-791.992,-160.645,-870.605,-800.293,0.000
1700264829.350,628.418,-32.715,-604.004,-94.238,0.000
1700264829.354,999.512,70.801,-350.586,752.441,0.000
1700264829.358,-149.902,-36.621,-577.637,401.367,0.000
1700264829.362,-1000.000,-104.980,-794.434,-634.277,0.000
1700264829.366,132.812,-15.137,-572.266,-313.477,0.000
1700264829.370,999.512,46.387,-342.285,730.469,0.000
1700264829.374,163.574,-25.879,-486.816,719.727,0.000
1700264829.378,-1000.000,-136.230,-810.059,-329.590,0.000
1700264829.381,-143.555,-106.934,-751.465,-400.879,0.000
1700264829.385,999.512,-8.301,-404.785,584.961,0.000
1700264829.389,579.590,-36.133,-453.613,956.055,0.000
1700264829.393,-896.973,-141.602,-783.691,3.418,0.000
1700264829.397,-566.406,-84.473,-595.703,-632.324,0.000
1700264829.401,899.414,-9.766,-354.980,272.461,0.000
1700264829.405,937.012,-39.062,-348.145,999.512,0.000
1700264829.409,-430.664,-117.676,-467.285,327.148,0.000
1700264829.413,-884.277,-146.484,-566.406,-583.496,0.000
1700264829.417,507.812,-75.195,-416.992,99.609,0.000
1700264829.421,999.512,-29.297,-197.754,999.512,0.000
1700264829.424,-57.617,-84.473,-258.789,680.176,0.000
1700264829.428,-1000.000,-171.875,-602.051,-338.379,0.000
1700264829.432,65.430,-98.633,-461.426,-52.734,0.000
1700264829.436,999.512,-58.105,-336.426,911.133,0.000
1700264829.440,304.199,-82.520,-322.754,895.508,0.000
1700264829.444,-1000.000,-108.887,-385.254,-76.660,0.000
1700264829.448,-289.551,-106.445,-418.457,-178.223,0.000
1700264829.452,999.512,-29.297,-79.102,796.875,0.000
1700264829.456,687.012,-15.625,114.746,999.512,0.000
1700264829.460,-847.168,-125.488,-249.023,262.695,0.000
1700264829.464,-571.777,-153.320,-518.066,-65.918,0.000
1700264829.467,881.348,-41.992,-177.734,676.270,0.000
1700264829.471,999.512,0.000,204.590,999.512,0.000
1700264829.475,-243.164,-88.867,-62.012,689.453,0.000
1700264829.479,-874.512,-174.316,-542.480,216.309,0.000
1700264829.483,500.000,-94.238,-315.430,694.824,0.000
1700264829.487,999.512,43.945,266.602,999.512,0.000
1700264829.491,138.672,-7.324,227.539,901.855,0.000
1700264829.495,-1000.000,-125.977,-120.605,522.949,0.000
1700264829.499,-2.930,-42.480,87.891,665.527,0.000
1700264829.503,999.512,61.523,360.352,998.047,0.000
1700264829.506,552.246,-2.930,317.871,995.117,0.000
1700264829.510,-954.590,-110.352,43.457,746.094,0.000
1700264829.514,-324.707,-68.359,79.590,698.242,0.000
1700264829.518,999.512,9.277,340.332,977.051,0.000
1700264829.522,912.109,4.883,407.715,995.605,0.000
1700264829.526,-488.281,-117.188,-10.742,864.746,0.000
1700264829.530,-636.719,-115.723,-82.031,762.695,0.000
1700264829.534,802.734,32.715,409.668,941.895,0.000
1700264829.538,999.512,32.715,424.805,999.512,0.000
1700264829.541,-60.059,-40.527,299.316,872.559,0.000
1700264829.545,-957.520,-89.355,229.004,646.973,0.000
1700264829.549,345.703,-20.020,358.887,849.121,0.000
1700264829.553,999.512,7.324,428.711,999.512,0.000
1700264829.557,248.535,-39.551,384.766,951.172,0.000
1700264829.561,-1000.000,-93.750,255.371,444.824,0.000
1700264829.565,-104.980,-55.664,286.621,493.652,0.000
1700264829.569,999.512,-18.066,320.801,995.605,0.000
1700264829.573,587.402,-69.824,276.855,999.512,0.000
1700264829.577,-920.898,-123.535,139.160,275.391,0.000
1700264829.581,-447.754,-116.699,67.871,-157.715,0.000
1700264829.584,999.512,-62.988,124.023,642.578,0.000
1700264829.588,847.168,-34.668,255.859,999.512,0.000
1700264829.592,-541.016,-76.660,208.496,208.984,0.000
1700264829.596,-809.082,-132.324,50.781,-740.234,0.000
1700264829.600,613.770,-63.965,188.965,-86.914,0.000
1700264829.604,999.512,-10.742,301.270,727.051,0.000
1700264829.608,-192.383,-70.312,166.504,160.156,0.000
1700264829.612,-1000.000,-159.180,-222.656,-913.574,0.000
1700264829.616,214.844,-131.348,-278.809,-562.988,0.000
1700264829.620,999.512,-64.453,41.016,360.352,0.000
1700264829.624,134.766,-67.871,118.652,203.125,0.000
1700264829.627,-1000.000,-161.621,-310.059,-808.594,0.000
1700264829.631,-237.305,-171.387,-501.953,-808.105,0.000
1700264829.635,999.512,-65.918,-122.070,118.164,0.000
1700264829.639,527.832,-23.926,202.637,389.648,0.000
1700264829.643,-924.805,-148.438,-229.492,-505.859,0.000
1700264829.647,-590.820,-159.668,-458.008,-969.727,0.000
1700264829.651,861.816,-64.941,-71.289,-104.980,0.000
1700264829.655,907.715,-61.523,145.996,600.586,0.000
1700264829.659,-451.172,-157.715,-213.379,-52.734,0.000
1700264829.663,-892.090,-217.285,-611.328,-893.066,0.000
1700264829.667,481.445,-117.188,-327.148,-204.590,0.000
1700264829.670,999.512,-46.875,76.172,763.184,0.000
1700264829.674,-58.105,-137.207,-157.227,523.926,0.000
1700264829.678,-1000.000,-220.215,-627.930,-496.582,0.000
1700264829.682,19.043,-91.797,-214.355,-331.543,0.000
1700264829.686,999.512,-27.832,130.371,704.590,0.000
1700264829.690,335.938,-98.145,-29.297,791.504,0.000
1700264829.694,-1000.000,-164.062,-359.375,-331.543,0.000
1700264829.698,-317.383,-83.496,-187.012,-536.133,0.000
1700264829.702,999.512,-17.090,90.820,553.223,0.000
1700264829.706,747.559,-53.223,121.094,999.512,0.000
1700264829.710,-718.262,-142.090,-234.375,148.926,0.000
1700264829.713,-645.508,-141.602,-430.176,-528.320,0.000
1700264829.717,805.664,-27.344,7.812,305.176,0.000
1700264829.721,999.512,-53.711,-8.789,999.512,0.000
1700264829.725,-264.648,-105.469,-237.305,434.082,0.000
1700264829.729,-961.426,-96.191,-307.129,-564.941,0.000
1700264829.733,373.047,-52.246,-137.207,44.434,0.000
1700264829.737,999.512,-6.348,79.102,999.512,0.000
1700264829.741,51.758,-38.086,69.824,721.191,0.000
1700264829.745,-1000.000,-107.422,-226.562,-352.051,0.000
1700264829.749,-61.523,-81.055,-305.664,-177.734,0.000
1700264829.752,999.512,-13.184,-36.621,843.262,0.000
1700264829.756,445.801,-24.414,27.344,916.504,0.000
1700264829.760,-1000.000,-109.375,-312.988,-175.781,0.000
1700264829.764,-388.672,-124.512,-460.449,-524.414,0.000
1700264829.768,999.512,-56.641,-259.766,437.988,0.000
1700264829.772,766.113,13.184,149.414,825.684,0.000
1700264829.776,-657.227,-79.102,-94.727,-93.750,0.000
1700264829.780,-725.098,-119.629,-417.969,-856.445,0.000
1700264829.784,711.914,-39.062,-166.016,-121.582,0.000
1700264829.788,998.047,-14.160,102.051,591.309,0.000
1700264829.792,-245.605,-87.402,-135.742,-42.969,0.000
1700264829.795,-1000.000,-161.133,-493.652,-1000.000,0.000
1700264829.799,215.332,-99.121,-390.137,-705.566,0.000
1700264829.803,999.512,-50.293,-255.371,148.438,0.000
1700264829.807,45.410,-91.797,-342.773,-123.047,0.000
1700264829.811,-1000.000,-211.426,-738.281,-979.004,0.000
1700264829.815,-242.676,-132.812,-633.789,-938.477,0.000
1700264829.819,999.512,8.789,-273.926,-248.535,0.000
1700264829.823,403.809,-52.734,-329.590,-90.332,0.000
1700264829.827,-1000.000,-159.668,-633.301,-788.574,0.000
1700264829.831,-553.223,-122.559,-610.352,-1000.000,0.000
1700264829.834,878.418,-24.414,-342.773,-520.508,0.000
1700264829.838,796.875,-44.922,-337.891,-7.324,0.000
1700264829.842,-586.914,-129.395,-591.309,-551.270,0.000
1700264829.846,-854.492,-142.578,-695.801,-1000.000,0.000
1700264829.850,530.762,-93.750,-526.367,-632.812,0.000
1700264829.854,999.512,-105.957,-543.457,94.238,0.000
1700264829.858,-166.504,-167.480,-732.910,-257.812,0.000
1700264829.862,-1000.000,-156.738,-708.984,-1000.000,0.000
1700264829.866,88.379,-110.840,-628.418,-809.082,0.000
1700264829.870,999.512,-65.430,-426.270,-32.715,0.000
1700264829.873,80.566,-87.891,-461.914,-161.621,0.000
1700264829.877,-1000.000,-150.391,-700.195,-972.168,0.000
1700264829.881,-298.340,-114.258,-648.438,-918.457,0.000
1700264829.885,999.512,-53.223,-447.754,-126.465,0.000
1700264829.889,525.391,-49.805,-370.117,222.168,0.000
1700264829.893,-877.441,-133.301,-617.188,-575.684,0.000
1700264829.897,-527.832,-169.434,-753.906,-967.773,0.000
1700264829.901,854.980,-142.090,-703.613,-91.797,0.000
1700264829.905,894.531,-77.637,-499.512,603.027,0.000
1700264829.909,-454.590,-94.238,-429.199,-138.672,0.000
1700264829.912,-888.672,-189.941,-677.734,-983.398,0.000
1700264829.916,474.121,-112.793,-514.648,-274.414,0.000
1700264829.920,999.512,-52.734,-284.668,721.680,0.000
1700264829.924,-30.762,-101.562,-414.062,412.598,0.000
1700264829.928,-1000.000,-176.270,-749.023,-650.391,0.000
1700264829.932,36.133,-111.816,-609.375,-373.047,0.000
1700264829.936,999.512,7.812,-187.012,666.504,0.000
1700264829.940,354.492,-28.320,-243.164,743.164,0.000
1700264829.944,-1000.000,-168.945,-693.359,-258.789,0.000
1700264829.948,-319.824,-152.344,-705.078,-403.809,0.000
1700264829.952,999.512,4.883,-337.891,565.430,0.000
1700264829.955,739.258,31.250,-125.977,996.094,0.000
1700264829.959,-713.867,-86.426,-391.113,155.762,0.000
1700264829.963,-643.066,-91.309,-528.320,-494.141,0.000
1700264829.967,797.363,23.438,-194.824,349.609,0.000
1700264829.971,999.512,48.340,36.133,999.512,0.000
1700264829.975,-226.074,-51.270,-230.957,535.156,0.000
1700264829.979,-940.918,-117.676,-576.660,-400.391,0.000
1700264829.983,364.746,-6.836,-333.496,129.883,0.000
1700264829.987,999.512,44.922,-51.270,999.512,0.000
1700264829.991,152.832,-31.250,-190.430,770.508,0.000
1700264829.995,-1000.000,-84.961,-493.652,-236.328,0.000
1700264829.998,-52.734,-10.742,-334.961,-92.773,0.000
1700264830.002,999.512,55.664,1.953,869.141,0.000
1700264830.006,552.246,-12.695,-139.160,979.492,0.000
1700264830.010,-948.242,-74.707,-409.180,34.180,0.000
1700264830.014,-383.789,-36.133,-310.059,-236.816,0.000
1700264830.018,999.512,3.418,-128.418,697.266,0.000
1700264830.022,864.258,-0.488,49.316,999.512,0.000
1700264830.026,-541.016,-59.570,-122.070,396.973,0.000
1700264830.030,-677.734,-88.867,-358.887,-229.492,0.000
1700264830.034,746.582,-46.387,-134.766,517.578,0.000
1700264830.038,999.512,-25.391,96.191,999.512,0.000
1700264830.041,-94.727,-63.477,-100.098,674.316,0.000
1700264830.045,-964.355,-117.676,-381.348,-105.957,0.000
1700264830.049,323.730,-97.656,-405.762,360.840,0.000
1700264830.053,999.512,-16.602,-102.539,999.512,0.000
1700264830.057,250.488,14.648,176.758,871.582,0.000
1700264830.061,-1000.000,-78.613,-192.871,91.309,0.000
1700264830.065,-85.449,-48.340,-225.586,252.930,0.000
1700264830.069,999.512,36.133,119.629,994.629,0.000
1700264830.073,674.316,37.109,282.715,999.512,0.000
1700264830.077,-809.082,-55.664,8.789,402.344,0.000
1700264830.081,-429.199,-65.918,-150.391,206.543,0.000
1700264830.084,999.512,15.625,126.465,884.766,0.000
1700264830.088,924.805,48.828,337.891,999.512,0.000
1700264830.092,-447.754,-28.809,114.258,612.793,0.000
1700264830.096,-679.688,-115.723,-272.949,281.250,0.000
1700264830.100,711.914,17.090,87.402,772.949,0.000
1700264830.104,999.512,107.910,433.105,999.512,0.000
1700264830.108,32.715,1.465,201.172,808.105,0.000
1700264830.112,-1000.000,-69.336,34.180,248.047,0.000
1700264830.116,193.359,12.207,215.332,525.879,0.000
1700264830.120,999.512,73.242,381.348,999.512,0.000
1700264830.124,368.164,11.719,259.277,955.566,0.000
1700264830.127,-1000.000,-87.891,-15.625,257.812,0.000
1700264830.131,-220.703,-52.246,40.527,162.109,0.000
1700264830.135,999.512,27.344,288.086,888.672,0.000
1700264830.139,733.398,-11.719,173.828,999.512,0.000
1700264830.143,-710.938,-102.539,-227.051,286.133,0.000
1700264830.147,-600.586,-31.738,-38.574,-398.926,0.000
1700264830.151,868.652,37.598,210.449,407.715,0.000
1700264830.155,958.496,37.598,243.652,999.512,0.000
1700264830.159,-354.980,-31.738,111.816,181.641,0.000
1700264830.163,-944.824,-78.613,-149.414,-923.340,0.000
1700264830.166,404.785,-21.973,-0.977,-461.426,0.000
1700264830.170,999.512,9.766,193.359,350.098,0.000
1700264830.174,-99.121,-28.809,24.902,-104.980,0.000
1700264830.178,-1000.000,-110.840,-397.461,-1000.000,0.000
1700264830.182,-79.590,-55.176,-276.855,-865.234,0.000
1700264830.186,999.512,-41.992,-231.934,-51.758,0.000
1700264830.190,221.680,-55.176,-289.062,-76.172,0.000
1700264830.194,-1000.000,-71.777,-339.844,-906.738,0.000
1700264830.198,-423.340,-82.520,-504.883,-982.422,0.000
1700264830.202,972.168,-0.488,-265.137,-310.059,0.000
1700264830.206,635.254,30.762,18.555,89.844,0.000
1700264830.209,-785.645,-68.848,-313.965,-575.195,0.000
1700264830.213,-710.449,-95.215,-572.266,-1000.000,0.000
1700264830.217,732.422,0.488,-356.445,-410.645,0.000
1700264830.221,907.227,30.273,-104.004,277.832,0.000
1700264830.225,-404.785,-46.875,-258.789,-194.824,0.000
1700264830.229,-965.820,-137.695,-686.523,-965.820,0.000
1700264830.233,343.750,-83.984,-586.426,-428.223,0.000
1700264830.237,999.512,45.898,-47.852,470.703,0.000
1700264830.241,-5.371,1.953,-52.246,309.082,0.000
1700264830.245,-1000.000,-132.324,-487.305,-668.945,0.000
1700264830.248,-149.902,-95.215,-424.316,-564.941,0.000
1700264830.252,999.512,-5.371,-48.828,444.824,0.000
1700264830.256,418.457,-53.223,-10.254,670.410,0.000
1700264830.260,-1000.000,-153.809,-396.484,-312.988,0.000
1700264830.264,-469.727,-135.254,-457.520,-666.504,0.000
1700264830.268,969.727,-42.969,-305.664,323.730,0.000
1700264830.272,807.129,-23.926,-202.148,896.973,0.000
1700264830.276,-601.074,-156.738,-496.094,137.695,0.000
1700264830.280,-791.504,-149.414,-613.281,-647.461,0.000
1700264830.284,610.840,15.137,-233.398,10.742,0.000
1700264830.287,999.512,38.086,-4.883,872.070,0.000
1700264830.291,-203.613,-23.438,-184.570,419.434,0.000
1700264830.295,-1000.000,-66.895,-505.859,-616.699,0.000
1700264830.299,177.734,0.977,-295.898,-228.516,0.000
1700264830.303,999.512,40.527,-20.508,788.574,0.000
1700264830.307,109.375,-12.207,-187.988,683.594,0.000
1700264830.311,-1000.000,-66.895,-454.102,-444.824,0.000
1700264830.315,-263.184,-34.180,-355.469,-532.715,0.000
1700264830.319,999.512,-26.855,-361.816,491.699,0.000
1700264830.323,499.512,-67.383,-434.082,765.137,0.000
1700264830.327,-967.773,-87.402,-499.512,-319.824,0.000
1700264830.330,-576.172,-81.543,-527.832,-857.910,0.000
1700264830.334,866.699,-20.996,-387.207,40.527,0.000
1700264830.338,759.766,22.461,-112.305,602.051,0.000
1700264830.342,-591.797,-32.227,-208.984,-191.406,0.000
1700264830.346,-918.457,-93.262,-549.805,-1000.000,0.000
1700264830.350,390.625,-40.039,-418.945,-511.230,0.000
1700264830.354,830.078,18.066,-169.922,257.812,0.000
1700264830.358,-315.918,-35.156,-308.594,-204.590,0.000
1700264830.362,-1000.000,-121.094,-638.184,-1000.000,0.000
1700264830.366,-55.176,-87.402,-622.070,-819.824,0.000
1700264830.370,883.301,-26.855,-479.492,-78.613,0.000
1700264830.373,-100.098,-23.926,-369.629,-185.547,0.000
1700264830.377,-1000.000,-131.836,-656.738,-944.336,0.000
1700264830.381,-405.762,-158.691,-750.488,-944.336,0.000
1700264830.385,770.020,-33.203,-438.477,-307.129,0.000
1700264830.389,243.164,-7.324,-342.773,22.461,0.000
1700264830.393,-971.191,-127.930,-645.020,-620.605,0.000
1700264830.397,-726.562,-148.926,-770.996,-1000.000,0.000
1700264830.401,501.953,-62.012,-500.488,-494.629,0.000
1700264830.405,526.855,-50.781,-337.891,129.883,0.000
1700264830.409,-626.953,-165.527,-609.375,-397.949,0.000
1700264830.413,-988.281,-264.648,-880.371,-1000.000,0.000
1700264830.416,202.148,-189.453,-627.441,-690.918,0.000
1700264830.420,808.105,-130.371,-428.711,133.301,0.000
1700264830.424,-249.023,-228.516,-616.699,-4.395,0.000
1700264830.428,-1000.000,-306.152,-861.816,-901.855,0.000
1700264830.432,-201.172,-189.941,-562.012,-788.574,0.000
1700264830.436,926.270,-140.625,-331.055,192.871,0.000
1700264830.440,154.297,-202.637,-428.223,445.801,0.000
1700264830.444,-1000.000,-258.301,-566.895,-520.996,0.000
1700264830.448,-447.754,-231.934,-506.348,-781.250,0.000
1700264830.452,960.938,-176.758,-307.617,241.699,0.000
1700264830.456,688.965,-201.172,-309.082,793.945,0.000
1700264830.459,-754.883,-284.668,-518.555,47.363,0.000
1700264830.463,-710.449,-293.457,-558.105,-578.125,0.000
1700264830.467,684.082,-207.031,-325.195,139.160,0.000
1700264830.471,999.512,-236.328,-318.848,983.398,0.000
1700264830.475,-242.676,-266.602,-410.156,531.738,0.000
1700264830.479,-988.281,-235.352,-420.898,-461.426,0.000
1700264830.483,302.246,-199.219,-396.973,-16.113,0.000
1700264830.487,999.512,-145.508,-176.270,928.711,0.000
1700264830.491,94.727,-125.977,-44.922,802.246,0.000
1700264830.495,-1000.000,-204.590,-430.176,-143.555,0.000
1700264830.499,-63.477,-185.547,-537.598,-114.746,0.000
1700264830.502,999.512,-81.055,-244.141,776.367,0.000
1700264830.506,564.941,-74.219,-167.969,999.512,0.000
1700264830.510,-903.320,-145.020,-447.754,170.898,0.000
1700264830.514,-431.641,-166.016,-594.238,-243.652,0.000
1700264830.518,999.512,-87.891,-439.941,589.844,0.000
1700264830.522,862.793,15.137,41.016,999.512,0.000
1700264830.526,-502.441,-38.086,-133.789,427.246,0.000
1700264830.530,-739.746,-94.238,-449.219,-300.781,0.000
1700264830.534,642.578,-16.113,-197.266,312.012,0.000
1700264830.538,999.512,37.598,114.746,999.512,0.000
1700264830.541,-117.188,-49.316,9.277,697.754,0.000
1700264830.545,-1000.000,-147.949,-354.492,-213.867,0.000
1700264830.549,220.215,-114.258,-291.504,-15.625,0.000
1700264830.553,999.512,-107.422,-12.207,865.234,0.000
1700264830.557,267.090,-191.406,-44.922,884.766,0.000
1700264830.561,-1000.000,-337.402,-563.477,30.762,0.000
1700264830.565,-244.141,-272.461,-475.098,-150.879,0.000
1700264830.569,999.512,-150.879,55.664,664.551,0.000
1700264830.573,650.879,-213.379,76.660,999.512,0.000
1700264830.577,-774.414,-267.090,-291.504,306.641,0.000
1700264830.581,-582.031,-181.641,-344.727,-272.949,0.000
1700264830.584,828.125,-29.297,15.625,460.938,0.000
1700264830.588,974.609,35.156,112.305,999.512,0.000
1700264830.592,-340.332,45.410,-170.898,642.578,0.000
1700264830.596,-811.035,85.449,-365.234,-83.496,0.000
1700264830.600,519.043,167.969,-277.832,379.395,0.000
1700264830.604,999.512,222.656,-154.785,999.512,0.000
1700264830.608,150.391,203.613,-328.125,863.770,0.000
1700264830.612,-974.609,233.887,-390.137,224.121,0.000
1700264830.616,135.742,337.402,-121.094,325.195,0.000
1700264830.620,999.512,401.855,44.434,941.895,0.000
1700264830.623,505.371,401.367,75.195,999.512,0.000
1700264830.627,-812.500,359.375,-138.184,583.984,0.000
1700264830.631,-137.207,371.582,-305.664,446.777,0.000
1700264830.635,999.512,425.781,-145.508,916.992,0.000
1700264830.639,873.047,443.848,150.879,999.512,0.000
1700264830.643,-411.621,364.258,40.527,796.387,0.000
1700264830.647,-376.953,298.828,-269.043,601.562,0.000
1700264830.651,906.250,301.758,-346.680,874.023,0.000
1700264830.655,999.512,348.633,-85.449,999.512,0.000
1700264830.659,-33.691,343.750,120.605,876.465,0.000
1700264830.662,-643.555,254.395,-189.941,538.086,0.000
1700264830.666,596.680,253.906,-161.621,717.285,0.000
1700264830.670,999.512,274.414,99.121,999.512,0.000
1700264830.674,306.641,250.000,190.918,960.449,0.000
1700264830.678,-794.434,152.344,-110.840,489.746,0.000
1700264830.682,159.180,148.438,-169.922,418.945,0.000
1700264830.686,999.512,229.004,199.707,919.434,0.000
1700264830.690,606.445,208.496,236.816,999.512,0.000
1700264830.694,-621.582,72.754,-215.332,515.625,0.000
1700264830.698,-126.465,33.203,-467.285,45.410,0.000
1700264830.701,999.512,163.086,39.062,488.281,0.000
1700264830.705,890.625,199.219,290.039,966.309,0.000
1700264830.709,-419.434,94.238,-60.059,370.117,0.000
1700264830.713,-678.711,68.848,-294.434,-470.215,0.000
1700264830.717,680.176,144.531,-16.113,-117.188,0.000
1700264830.721,999.512,169.922,184.082,611.328,0.000
1700264830.725,-61.035,97.656,-85.938,354.004,0.000
1700264830.729,-911.621,40.527,-364.746,-594.238,0.000
1700264830.733,274.414,94.238,-222.656,-541.992,0.000
1700264830.737,999.512,134.766,66.895,291.504,0.000
1700264830.741,320.801,72.754,-51.270,385.254,0.000
1700264830.745,-965.820,-3.906,-409.180,-515.137,0.000
1700264830.748,-183.594,41.016,-255.859,-855.957,0.000
1700264830.752,999.512,97.168,48.340,-105.957,0.000
1700264830.756,717.285,62.988,-56.641,346.191,0.000
1700264830.760,-687.988,28.320,-294.434,-382.324,0.000
1700264830.764,-457.031,48.340,-248.047,-1000.000,0.000
1700264830.768,907.227,49.316,-113.770,-415.527,0.000
1700264830.772,960.938,29.297,60.547,238.770,0.000
1700264830.776,-297.852,-18.555,-35.645,-270.508,0.000
1700264830.780,-682.129,-60.059,-319.336,-1000.000,0.000
1700264830.784,607.910,-26.855,-355.469,-756.836,0.000
1700264830.788,999.512,20.996,-115.234,-35.156,0.000
1700264830.791,144.531,0.488,-82.031,-221.680,0.000
1700264830.795,-779.785,-71.289,-354.004,-956.543,0.000
1700264830.799,279.785,-109.375,-459.961,-929.688,0.000
1700264830.803,999.512,-107.422,-259.277,-340.332,0.000
1700264830.807,496.582,-30.762,95.703,-257.812,0.000
1700264830.811,-704.102,-41.504,-236.816,-812.012,0.000
1700264830.815,-60.059,-11.719,-379.883,-1000.000,0.000
1700264830.819,999.512,115.234,-87.402,-604.980,0.000
1700264830.823,823.730,181.641,154.785,-181.641,0.000
1700264830.827,-393.066,136.230,-101.074,-642.090,0.000
1700264830.830,-348.145,126.465,-377.930,-1000.000,0.000
1700264830.834,865.234,180.664,-311.523,-809.082,0.000
1700264830.838,999.512,244.141,-15.137,-330.078,0.000
1700264830.842,-12.695,237.793,0.488,-542.480,0.000
1700264830.846,-546.875,139.648,-530.273,-1000.000,0.000
1700264830.850,537.109,218.750,-411.621,-986.816,0.000
1700264830.854,999.512,319.336,25.391,-528.809,0.000
1700264830.858,325.684,239.746,-29.785,-395.020,0.000
1700264830.862,-722.168,159.668,-334.473,-878.906,0.000
1700264830.866,-6.836,172.852,-364.746,-1000.000,0.000
1700264830.870,912.109,209.473,-79.590,-766.113,0.000
1700264830.873,483.398,177.246,-18.555,-383.789,0.000
1700264830.877,-619.629,117.676,-312.012,-698.242,0.000
1700264830.881,-400.879,117.188,-445.801,-1000.000,0.000
1700264830.885,572.754,175.781,-343.750,-937.500,0.000
1700264830.889,601.074,183.594,-365.723,-524.902,0.000
1700264830.893,-327.637,171.875,-447.754,-580.078,0.000
1700264830.897,-697.266,225.586,-409.668,-1000.000,0.000
1700264830.901,143.066,268.555,-448.730,-1000.000,0.000
1700264830.905,555.176,317.871,-271.973,-866.211,0.000
1700264830.909,-7.324,333.984,-197.754,-551.758,0.000
1700264830.913,-622.559,286.621,-405.273,-793.457,0.000
1700264830.916,-271.973,234.375,-553.711,-1000.000,0.000
1700264830.920,208.984,248.047,-503.906,-1000.000,0.000
1700264830.924,120.117,286.621,-292.480,-533.691,0.000
1700264830.928,-350.586,242.676,-371.094,-379.395,0.000
1700264830.932,-482.422,182.617,-608.398,-967.773,0.000
1700264830.936,-103.027,157.715,-745.117,-1000.000,0.000
1700264830.940,197.754,240.723,-528.809,-713.379,0.000
1700264830.944,67.383,319.336,-234.375,-61.523,0.000
1700264830.948,-360.840,207.520,-530.273,-625.977,0.000
1700264830.952,-384.277,162.109,-742.188,-1000.000,0.000
1700264830.956,74.219,246.094,-473.145,-948.242,0.000
1700264830.959,450.195,333.008,-203.125,21.973,0.000
1700264830.963,31.250,275.391,-458.008,-167.480,0.000
1700264830.967,-630.371,191.406,-823.730,-1000.000,0.000
1700264830.971,-404.785,248.535,-738.281,-1000.000,0.000
1700264830.975,484.863,352.051,-357.422,-136.719,0.000
1700264830.979,588.379,321.289,-400.391,213.867,0.000
1700264830.983,-511.230,175.781,-859.863,-979.492,0.000
1700264830.987,-742.188,245.117,-706.055,-1000.000,0.000
1700264830.991,261.719,376.953,-343.262,-457.031,0.000
1700264830.994,839.844,400.879,-113.281,132.812,0.000
1700264830.998,-263.184,287.109,-526.855,-829.590,0.000
1700264831.002,-898.926,243.164,-809.570,-1000.000,0.000
1700264831.006,-54.688,331.543,-484.863,-880.371,0.000
1700264831.010,834.961,402.832,-159.668,-582.031,0.000
1700264831.014,71.289,300.781,-470.703,-869.629,0.000
1700264831.018,-874.512,216.309,-839.355,-1000.000,0.000
1700264831.022,-278.809,272.461,-682.617,-979.004,0.000
1700264831.026,766.602,310.059,-453.125,-926.758,0.000
1700264831.030,433.594,282.227,-499.023,-959.473,0.000
1700264831.034,-826.172,209.961,-736.328,-1000.000,0.000
1700264831.037,-674.316,190.430,-786.621,-994.141,0.000
1700264831.041,411.133,288.574,-334.961,-1000.000,0.000
1700264831.045,571.777,314.941,-122.070,-1000.000,0.000
1700264831.049,-658.691,162.109,-645.508,-1000.000,0.000
1700264831.053,-983.398,85.938,-886.230,-1000.000,0.000
1700264831.057,5.859,174.316,-504.883,-1000.000,0.000
1700264831.061,618.164,235.352,-92.285,-1000.000,0.000
1700264831.065,-366.211,47.852,-530.762,-1000.000,0.000
1700264831.069,-1000.000,-153.809,-974.121,-1000.000,0.000
1700264831.073,-401.367,-134.766,-749.512,-1000.000,0.000
1700264831.076,474.121,-1.465,-132.324,-1000.000,0.000
1700264831.080,-157.715,-54.199,-377.930,-1000.000,0.000
1700264831.084,-1000.000,-125.000,-888.672,-1000.000,0.000
1700264831.088,-816.895,-25.879,-757.812,-1000.000,0.000
1700264831.092,146.484,134.766,-274.414,-1000.000,0.000
1700264831.096,-27.344,111.328,-309.570,-1000.000,0.000
1700264831.100,-1000.000,-54.688,-867.676,-1000.000,0.000
1700264831.104,-1000.000,-7.812,-878.906,-1000.000,0.000
1700264831.108,-134.766,162.598,-414.062,-1000.000,0.000
1700264831.112,196.777,175.293,-248.047,-1000.000,0.000
1700264831.116,-783.203,1.465,-761.230,-1000.000,0.000
1700264831.119,-1000.000,12.207,-931.641,-1000.000,0.000
1700264831.123,-359.375,192.871,-592.285,-1000.000,0.000
1700264831.127,447.266,291.016,-308.594,-1000.000,0.000
1700264831.131,-338.867,153.320,-656.250,-1000.000,0.000
1700264831.135,-1000.000,117.676,-956.543,-1000.000,0.000
1700264831.139,-703.613,265.137,-748.047,-1000.000,0.000
1700264831.143,256.836,358.398,-359.863,-1000.000,0.000
1700264831.147,-167.969,286.133,-583.984,-1000.000,0.000
1700264831.151,-1000.000,219.727,-922.852,-1000.000,0.000
1700264831.155,-939.453,311.523,-812.988,-1000.000,0.000
1700264831.159,104.980,447.754,-526.367,-1000.000,0.000
1700264831.162,268.066,477.539,-566.895,-1000.000,0.000
1700264831.166,-887.695,391.602,-881.348,-1000.000,0.000
1700264831.170,-1000.000,416.504,-856.445,-1000.000,0.000
1700264831.174,89.355,519.531,-640.625,-1000.000,0.000
1700264831.178,698.242,562.500,-471.680,-1000.000,0.000
1700264831.182,-501.465,567.383,-629.395,-1000.000,0.000
1700264831.186,-986.328,597.656,-904.297,-1000.000,0.000
1700264831.190,-55.176,632.324,-661.133,-1000.000,0.000
1700264831.194,754.395,629.395,-65.918,-1000.000,0.000
1700264831.198,-120.605,429.688,-339.355,-1000.000,0.000
1700264831.202,-1000.000,222.656,-901.367,-1000.000,0.000
1700264831.205,-517.090,244.141,-736.816,-1000.000,0.000
1700264831.209,697.754,336.426,-280.273,-1000.000,0.000
1700264831.213,280.762,251.465,-323.730,-1000.000,0.000
1700264831.217,-1000.000,52.734,-793.945,-1000.000,0.000
1700264831.221,-730.957,-26.367,-920.410,-1000.000,0.000
1700264831.225,473.633,110.840,-376.953,-1000.000,0.000
1700264831.229,606.934,164.062,-111.816,-1000.000,0.000
1700264831.233,-690.430,-29.785,-760.742,-1000.000,0.000
1700264831.237,-974.121,-76.172,-871.582,-1000.000,0.000
1700264831.241,102.539,42.480,-427.734,-1000.000,0.000
1700264831.245,820.312,79.590,-208.984,-1000.000,0.000
1700264831.248,-324.219,-66.895,-647.949,-1000.000,0.000
1700264831.252,-1000.000,-145.020,-936.035,-1000.000,0.000
1700264831.256,-210.449,-68.848,-639.160,-1000.000,0.000
1700264831.260,804.688,22.461,-217.773,-1000.000,0.000
1700264831.264,36.133,-91.309,-535.645,-1000.000,0.000
1700264831.268,-1000.000,-220.703,-924.316,-1000.000,0.000
1700264831.272,-658.203,-119.141,-627.930,-1000.000,0.000
1700264831.276,503.906,-9.277,-94.238,-1000.000,0.000
1700264831.280,324.219,-74.219,-162.598,-1000.000,0.000
1700264831.284,-950.684,-212.402,-717.773,-1000.000,0.000
1700264831.288,-791.504,-159.180,-762.207,-1000.000,0.000
1700264831.291,457.520,-12.695,-240.234,-1000.000,0.000
1700264831.295,811.035,2.930,-11.719,-1000.000,0.000
1700264831.299,-509.766,-165.039,-630.859,-1000.000,0.000
1700264831.303,-996.582,-268.066,-839.355,-1000.000,0.000
1700264831.307,59.082,-192.383,-390.625,-1000.000,0.000
1700264831.311,929.199,-186.523,-151.855,-1000.000,0.000
1700264831.315,-161.133,-331.543,-511.719,-1000.000,0.000
1700264831.319,-1000.000,-371.094,-696.289,-1000.000,0.000
1700264831.323,-394.531,-316.895,-507.324,-1000.000,0.000
1700264831.326,794.434,-221.191,55.176,-1000.000,0.000
1700264831.330,111.816,-290.039,-103.027,-1000.000,0.000
1700264831.334,-1000.000,-453.125,-681.641,-1000.000,0.000
1700264831.338,-816.895,-449.219,-581.543,-1000.000,0.000
1700264831.342,374.512,-312.500,22.949,-1000.000,0.000
1700264831.346,341.309,-308.594,73.730,-1000.000,0.000
1700264831.350,-939.453,-472.656,-607.422,-1000.000,0.000
1700264831.354,-882.812,-508.301,-716.797,-1000.000,0.000
1700264831.358,349.609,-427.734,-320.312,-1000.000,0.000
1700264831.362,816.406,-333.008,258.789,-1000.000,0.000
1700264831.366,-496.094,-440.918,-164.062,-1000.000,0.000
1700264831.369,-1000.000,-519.531,-590.820,-1000.000,0.000
1700264831.373,12.207,-401.367,-98.633,-1000.000,0.000
1700264831.377,999.512,-270.020,422.852,-1000.000,0.000
1700264831.381,19.043,-379.395,-29.785,-1000.000,0.000
1700264831.385,-1000.000,-486.816,-559.570,-1000.000,0.000
1700264831.389,-451.660,-372.559,-132.812,-1000.000,0.000
1700264831.393,809.082,-243.652,423.828,-1000.000,0.000
1700264831.397,290.039,-334.473,88.867,-1000.000,0.000
1700264831.401,-1000.000,-509.766,-656.738,-1000.000,0.000
1700264831.405,-876.953,-457.520,-410.645,-1000.000,0.000
1700264831.408,333.496,-294.922,308.105,-1000.000,0.000
1700264831.412,476.562,-311.523,259.277,-1000.000,0.000
1700264831.416,-836.914,-437.988,-341.309,-1000.000,0.000
1700264831.420,-987.793,-386.719,-416.504,-1000.000,0.000
1700264831.424,183.594,-221.680,121.094,-1000.000,0.000
1700264831.428,929.688,-176.758,354.492,-1000.000,0.000
1700264831.432,-326.172,-305.176,-176.758,-975.586,0.000
1700264831.436,-982.422,-324.219,-480.469,-1000.000,0.000
1700264831.440,8.301,-222.656,-25.391,-915.527,0.000
1700264831.444,999.512,-182.617,349.121,-623.535,0.000
1700264831.448,107.422,-324.219,-129.395,-939.941,0.000
1700264831.451,-1000.000,-394.531,-508.789,-1000.000,0.000
1700264831.455,-512.695,-292.480,-131.348,-978.027,0.000
1700264831.459,756.348,-157.715,245.605,-970.703,0.000
1700264831.463,378.418,-160.645,141.113,-975.586,0.000
1700264831.467,-894.531,-252.441,-269.531,-945.312,0.000
1700264831.471,-648.438,-213.379,-257.812,-1000.000,0.000
1700264831.475,454.102,-109.863,220.703,37.109,0.000
1700264831.479,619.141,-91.797,367.188,613.281,0.000
1700264831.483,-666.504,-206.055,-82.520,-883.789,0.000
1700264831.487,-708.008,-213.867,-281.738,-1000.000,0.000
1700264831.491,447.266,-105.469,108.398,-115.234,0.000
1700264831.494,999.512,-25.391,448.730,999.512,0.000
1700264831.498,1.953,-103.027,23.926,597.656,0.000
1700264831.502,-594.727,-166.016,-401.367,626.953,0.000
1700264831.506,291.992,-110.352,-209.961,999.512,0.000
1700264831.510,999.512,-4.883,294.922,949.707,0.000
1700264831.514,341.309,-29.297,173.340,964.844,0.000
1700264831.518,-641.113,-137.207,-396.484,966.309,0.000
1700264831.522,-193.848,-122.559,-171.875,965.820,0.000
1700264831.526,790.527,-5.371,379.883,965.820,0.000
1700264831.530,534.668,-36.621,226.074,965.820,0.000
1700264831.534,-617.188,-202.148,-382.324,965.820,0.000
1700264831.537,-474.609,-205.566,-438.965,965.820,0.000
1700264831.541,559.082,-73.730,115.234,965.820,0.000
1700264831.545,830.566,-19.043,333.496,965.820,0.000
1700264831.549,-306.641,-137.695,-277.344,965.820,0.000
1700264831.553,-690.918,-193.359,-571.777,966.309,0.000
1700264831.557,205.078,-97.168,85.938,966.309,0.000
1700264831.561,868.652,-67.871,466.309,965.820,0.000
1700264831.565,-121.094,-226.562,-71.777,965.820,0.000
1700264831.569,-884.766,-275.391,-494.141,965.820,0.000
1700264831.573,-128.418,-174.805,-88.379,965.820,0.000
1700264831.577,914.062,-140.137,320.312,965.820,0.000
1700264831.580,311.523,-262.207,-18.066,965.820,0.000
1700264831.584,-757.812,-399.902,-549.805,965.820,0.000
1700264831.588,-194.336,-361.816,-393.066,965.820,0.000
1700264831.592,817.383,-235.840,186.523,965.820,0.000
1700264831.596,773.926,-284.668,-17.578,965.820,0.000
1700264831.600,-356.445,-402.832,-546.387,966.309,0.000
1700264831.604,-387.695,-341.797,-270.020,965.820,0.000
1700264831.608,627.441,-240.723,106.934,965.820,0.000
1700264831.612,971.680,-206.055,338.379,966.309,0.000
1700264831.616,-83.008,-336.426,-79.102,965.820,0.000
1700264831.619,-486.816,-394.043,-375.000,965.820,0.000
1700264831.623,446.777,-331.055,46.875,965.820,0.000
1700264831.627,999.512,-284.180,424.316,965.820,0.000
1700264831.631,276.367,-413.574,-14.160,965.820,0.000
1700264831.635,-627.930,-517.578,-489.746,966.309,0.000
1700264831.639,169.434,-433.105,-257.324,965.820,0.000
1700264831.643,999.512,-314.941,239.746,965.820,0.000
1700264831.647,525.879,-360.840,138.672,965.820,0.000
1700264831.651,-586.426,-511.719,-407.227,967.773,0.000
1700264831.655,-153.809,-503.906,-304.688,955.566,0.000
1700264831.659,878.418,-354.492,246.582,947.754,0.000
1700264831.662,791.504,-379.883,363.281,999.512,0.000
1700264831.666,-402.832,-619.629,-236.816,253.906,0.000
1700264831.670,-530.273,-661.133,-418.945,245.605,0.000
1700264831.674,511.719,-504.883,131.836,999.512,0.000
1700264831.678,999.512,-468.750,392.090,955.566,0.000
1700264831.682,-98.633,-662.109,-139.648,879.883,0.000
1700264831.686,-893.066,-783.691,-623.047,922.852,0.000
1700264831.690,119.629,-653.320,-168.457,979.980,0.000
1700264831.694,999.512,-471.680,541.504,960.449,0.000
1700264831.698,139.648,-660.156,88.867,967.285,0.000
1700264831.701,-1000.000,-866.211,-559.082,965.820,0.000
1700264831.705,-537.598,-758.301,-185.547,966.309,0.000
1700264831.709,768.555,-568.848,420.898,965.820,0.000
1700264831.713,424.805,-642.578,150.879,965.820,0.000
1700264831.717,-1000.000,-831.543,-473.145,966.309,0.000
1700264831.721,-854.980,-775.879,-450.684,965.820,0.000
1700264831.725,448.730,-576.660,96.191,965.820,0.000
1700264831.729,789.062,-549.316,135.742,965.820,0.000
1700264831.733,-576.660,-736.816,-583.984,965.820,0.000
1700264831.737,-1000.000,-660.645,-623.535,965.820,0.000
1700264831.740,77.148,-399.902,-68.359,965.820,0.000
1700264831.744,999.512,-304.688,268.555,965.820,0.000
1700264831.748,-154.785,-541.016,-283.203,965.820,0.000
1700264831.752,-1000.000,-680.664,-708.984,966.309,0.000
1700264831.756,-531.250,-609.863,-424.316,965.820,0.000
1700264831.760,789.551,-506.836,139.648,965.820,0.000
1700264831.764,46.387,-665.527,-176.270,965.820,0.000
1700264831.768,-1000.000,-918.457,-821.777,965.820,0.000
1700264831.772,-875.000,-898.926,-636.230,965.820,0.000
1700264831.776,469.727,-795.898,-303.223,965.820,0.000
1700264831.780,348.633,-843.750,-369.629,965.820,0.000
1700264831.783,-1000.000,-975.586,-732.910,965.820,0.000
1700264831.787,-1000.000,-1000.000,-817.871,965.820,0.000
1700264831.791,174.805,-875.977,-284.180,965.820,0.000
1700264831.795,743.164,-780.273,14.160,965.820,0.000
1700264831.799,-625.000,-955.078,-593.750,965.820,0.000
1700264831.803,-1000.000,-1000.000,-889.160,966.309,0.000
1700264831.807,-67.871,-920.410,-459.961,965.820,0.000
1700264831.811,999.512,-786.133,87.402,965.820,0.000
1700264831.815,-39.062,-921.387,-386.719,965.820,0.000
1700264831.819,-1000.000,-1000.000,-1000.000,965.820,0.000
1700264831.822,-46.875,-979.980,-733.887,966.309,0.000
1700264831.826,999.512,-901.367,-101.074,965.820,0.000
1700264831.830,413.574,-948.242,-331.543,965.820,0.000
1700264831.834,-764.648,-1000.000,-836.426,965.820,0.000
1700264831.838,-269.043,-1000.000,-703.613,965.820,0.000
1700264831.842,820.801,-914.062,-60.059,966.309,0.000
1700264831.846,734.863,-915.039,15.137,965.820,0.000
1700264831.850,-459.961,-1000.000,-684.570,965.820,0.000
1700264831.854,-499.023,-1000.000,-732.910,965.820,0.000
1700264831.858,554.199,-939.453,-98.633,965.820,0.000
1700264831.862,990.234,-900.391,127.441,965.820,0.000
1700264831.866,-60.059,-994.141,-557.129,965.820,0.000
1700264831.869,-579.102,-1000.000,-788.574,965.820,0.000
1700264831.873,340.332,-924.805,-379.395,965.820,0.000
1700264831.877,999.512,-789.062,20.996,965.820,0.000
1700264831.881,253.418,-907.227,-347.656,965.820,0.000
1700264831.885,-644.531,-923.828,-737.793,965.820,0.000
1700264831.889,41.016,-712.402,-495.605,965.820,0.000
1700264831.893,998.535,-537.109,-83.984,965.820,0.000
1700264831.897,550.293,-567.383,-284.668,965.820,0.000
1700264831.901,-496.582,-691.406,-805.176,966.309,0.000
1700264831.905,-124.023,-614.746,-650.391,966.309,0.000
1700264831.909,763.672,-488.770,-239.746,965.820,0.000
1700264831.912,705.078,-549.316,-309.570,965.820,0.000
1700264831.916,-370.605,-747.559,-758.789,966.309,0.000
1700264831.920,-698.730,-805.664,-747.070,967.285,0.000
1700264831.924,307.129,-731.445,-458.984,902.344,0.000
1700264831.928,800.293,-674.316,-246.094,999.512,0.000
1700264831.932,-432.129,-752.930,-485.352,277.832,0.000
1700264831.936,-1000.000,-787.598,-812.012,-1000.000,0.000
1700264831.940,-284.180,-590.820,-484.375,-493.652,0.000
1700264831.944,633.789,-366.699,97.168,291.504,0.000
1700264831.948,-157.227,-445.801,-241.699,-855.469,0.000
1700264831.952,-1000.000,-585.449,-829.102,-1000.000,0.000
1700264831.955,-706.543,-465.332,-681.152,-940.430,0.000
1700264831.959,419.434,-238.770,-147.949,-1000.000,0.000
1700264831.963,71.777,-236.328,-233.398,-1000.000,0.000
1700264831.967,-1000.000,-329.590,-752.930,-1000.000,0.000
1700264831.971,-917.480,-297.852,-848.633,-1000.000,0.000
1700264831.975,146.973,-73.730,-266.602,-1000.000,0.000
1700264831.979,285.156,60.547,62.012,-1000.000,0.000
1700264831.983,-844.727,-219.727,-607.910,-1000.000,0.000
1700264831.987,-1000.000,-358.887,-765.625,-1000.000,0.000
1700264831.991,-606.445,-251.465,-373.535,-1000.000,0.000
1700264831.994,-178.711,-180.176,129.883,-1000.000,0.000
1700264831.998,-824.707,-446.777,-344.238,-1000.000,0.000
1700264832.002,-1000.000,-627.930,-895.508,-1000.000,0.000
1700264832.006,-927.246,-508.301,-517.090,-1000.000,0.000
1700264832.010,-837.402,-410.645,82.520,-1000.000,0.000
1700264832.014,-973.633,-688.477,-294.922,-1000.000,0.000
1700264832.018,-1000.000,-963.379,-908.691,-1000.000,0.000
1700264832.022,-990.234,-767.090,-547.852,-1000.000,0.000
1700264832.026,-1000.000,-574.707,40.527,-1000.000,0.000
1700264832.030,-1000.000,-729.980,-62.988,-1000.000,0.000
1700264832.034,-1000.000,-970.703,-666.016,-1000.000,0.000
1700264832.037,-1000.000,-936.035,-620.117,-1000.000,0.000
1700264832.041,-1000.000,-749.023,-52.246,-1000.000,0.000
1700264832.045,-1000.000,-780.273,172.852,-1000.000,0.000
1700264832.049,-1000.000,-995.605,-565.918,-932.617,0.000
1700264832.053,-1000.000,-1000.000,-875.488,-1000.000,0.000
1700264832.057,-1000.000,-990.234,-340.820,-316.895,0.000
1700264832.061,-1000.000,-991.211,-127.441,999.512,0.000
1700264832.065,-1000.000,-1000.000,-579.102,965.820,0.000
1700264832.069,-1000.000,-997.070,-680.664,931.152,0.000
1700264832.073,-1000.000,-1000.000,-457.520,975.586,0.000
1700264832.076,-1000.000,-954.102,80.078,965.820,0.000
1700264832.080,-1000.000,-929.199,-71.777,966.309,0.000
1700264832.084,-1000.000,-1000.000,-647.461,965.820,0.000
1700264832.088,-1000.000,-972.168,-562.012,965.820,0.000
1700264832.092,-1000.000,-711.914,-17.578,965.820,0.000
1700264832.096,-1000.000,-655.273,40.527,965.820,0.000
1700264832.100,-1000.000,-769.043,-579.102,966.309,0.000
1700264832.104,-1000.000,-614.746,-695.801,966.309,0.000
1700264832.108,-1000.000,-326.660,-327.637,965.820,0.000
1700264832.112,-1000.000,-95.703,218.750,965.820,0.000
1700264832.115,-999.023,-178.223,-143.066,965.820,0.000
1700264832.119,-1000.000,-216.309,-569.336,965.820,0.000
1700264832.123,-995.605,5.371,-145.020,965.820,0.000
1700264832.127,-980.957,219.238,389.160,965.820,0.000
1700264832.131,-994.141,100.586,-59.570,965.820,0.000
1700264832.135,-1000.000,39.062,-576.172,965.820,0.000
1700264832.139,-996.582,307.617,-244.141,965.820,0.000
1700264832.143,-935.059,573.242,254.395,965.820,0.000
1700264832.147,-978.027,558.105,67.383,965.820,0.000
1700264832.151,-1000.000,426.758,-651.367,975.586,0.000
1700264832.155,-995.605,590.820,-594.727,925.781,0.000
1700264832.158,-992.676,921.875,222.656,985.352,0.000
1700264832.162,-996.094,875.000,217.285,915.039,0.000
1700264832.166,-1000.000,524.902,-441.895,-324.707,0.000
1700264832.170,-999.512,366.211,-482.422,-1000.000,0.000
1700264832.174,-1000.000,419.434,55.176,-95.215,0.000
1700264832.178,-1000.000,366.211,309.082,916.992,0.000
1700264832.182,-999.023,-45.898,-292.480,-457.031,0.000
1700264832.186,-1000.000,-305.664,-567.871,-1000.000,0.000
1700264832.190,-997.070,-245.117,-130.371,-669.922,0.000
1700264832.194,-978.027,-282.227,232.422,705.566,0.000
1700264832.198,-994.141,-660.156,-265.137,-81.055,0.000
1700264832.201,-1000.000,-866.211,-670.898,-1000.000,0.000
1700264832.205,-1000.000,-769.531,-276.367,-1000.000,0.000
1700264832.209,-942.871,-722.656,193.848,333.496,0.000
1700264832.213,-970.215,-877.441,40.527,377.930,0.000
1700264832.217,-979.492,-1000.000,-487.305,-1000.000,0.000
1700264832.221,-1000.000,-1000.000,-489.746,-879.883,0.000
1700264832.225,-560.547,-959.961,28.809,463.379,0.000
1700264832.229,-372.070,-928.711,358.398,999.512,0.000
1700264832.233,-963.867,-994.629,-180.176,-90.332,0.000
1700264832.237,-1000.000,-1000.000,-516.113,-1.953,0.000
1700264832.240,-289.062,-969.238,-7.324,999.512,0.000
1700264832.244,858.398,-838.379,468.750,999.512,0.000
1700264832.248,-323.730,-892.090,29.297,260.254,0.000
1700264832.252,-1000.000,-897.949,-452.637,-1000.000,0.000
1700264832.256,-46.875,-687.012,-217.285,-444.824,0.000
1700264832.260,999.512,-360.840,437.988,999.512,0.000
1700264832.264,301.270,-374.023,309.082,-150.391,0.000
1700264832.268,-876.953,-529.297,-310.059,-1000.000,0.000
1700264832.272,56.152,-311.035,-115.234,-938.477,0.000
1700264832.276,999.512,45.410,474.121,-978.027,0.000
1700264832.280,675.293,63.965,427.246,-994.629,0.000
1700264832.283,-339.844,-117.676,-195.801,-1000.000,0.000
1700264832.287,140.137,-43.457,-326.172,-999.023,0.000
1700264832.291,985.840,235.840,306.152,-1000.000,0.000
1700264832.295,971.680,356.445,553.223,-1000.000,0.000
1700264832.299,203.125,91.797,-140.137,-1000.000,0.000
1700264832.303,221.191,50.781,-459.961,-1000.000,0.000
1700264832.307,949.219,421.387,237.305,-1000.000,0.000
1700264832.311,999.512,555.664,570.801,-1000.000,0.000
1700264832.315,586.914,245.117,43.945,-1000.000,0.000
1700264832.319,447.266,15.137,-437.988,-1000.000,0.000
1700264832.323,965.820,165.527,-52.246,-1000.000,0.000
1700264832.326,999.512,426.270,503.906,-1000.000,0.000
1700264832.330,791.016,307.617,128.906,-996.582,0.000
1700264832.334,666.504,103.027,-507.812,-931.641,0.000
1700264832.338,950.195,223.633,-338.867,-1000.000,0.000
1700264832.342,994.141,457.520,244.629,-33.203,0.000
1700264832.346,927.734,369.629,90.820,662.598,0.000
1700264832.350,808.594,166.504,-496.094,-1000.000,0.000
1700264832.354,920.410,292.480,-323.730,-227.539,0.000
1700264832.358,984.863,440.918,123.535,999.512,0.000
1700264832.362,956.055,475.098,397.949,928.711,0.000
1700264832.366,949.707,280.762,-90.820,942.871,0.000
1700264832.369,958.008,235.840,-422.363,971.680,0.000
1700264832.373,968.262,558.105,81.543,965.820,0.000
1700264832.377,963.867,887.695,525.391,965.332,0.000
1700264832.381,965.820,693.359,94.238,965.332,0.000
1700264832.385,965.332,556.641,-417.969,965.820,0.000
1700264832.389,965.332,825.195,-231.934,965.820,0.000
1700264832.393,965.332,962.402,258.789,965.820,0.000
1700264832.397,965.332,961.426,255.859,965.820,0.000
1700264832.401,965.332,963.867,-288.086,965.820,0.000
1700264832.404,965.332,966.797,-298.828,965.820,0.000
1700264832.409,965.332,965.820,267.578,965.820,0.000
1700264832.412,965.332,965.820,383.789,966.309,0.000
1700264832.416,965.332,965.820,-226.562,965.820,0.000
1700264832.420,965.332,966.309,-496.582,965.820,0.000
1700264832.424,965.332,965.820,11.230,965.820,0.000
1700264832.428,965.332,965.820,387.695,965.820,0.000
1700264832.432,965.332,965.820,-134.766,965.820,0.000
1700264832.436,965.332,965.820,-770.508,965.820,0.000
1700264832.440,965.332,966.309,-286.133,965.820,0.000
1700264832.444,965.332,965.820,485.352,966.309,0.000
1700264832.447,965.332,965.820,-76.660,965.820,0.000
1700264832.451,966.309,966.309,-649.414,965.820,0.000
1700264832.455,962.402,965.820,-324.707,966.309,0.000
1700264832.459,971.680,965.820,259.766,965.820,0.000
1700264832.463,949.219,965.820,62.012,965.820,0.000
1700264832.467,927.246,965.820,-629.883,966.309,0.000
1700264832.471,959.961,965.820,-569.336,965.820,0.000
1700264832.475,965.332,966.309,40.527,965.820,0.000
1700264832.479,986.816,965.820,124.512,965.820,0.000
1700264832.483,744.141,965.820,-648.926,965.820,0.000
1700264832.487,772.461,966.309,-611.816,966.309,0.000
1700264832.490,970.215,965.820,21.484,965.820,0.000
1700264832.494,999.512,965.820,358.887,965.820,0.000
1700264832.498,560.059,965.820,-243.652,966.309,0.000
1700264832.502,335.449,965.820,-722.168,966.309,0.000
1700264832.506,891.113,965.820,-491.211,965.820,0.000
1700264832.510,999.512,966.309,119.629,965.820,0.000
1700264832.514,484.863,963.379,-114.746,965.820,0.000
1700264832.518,-292.480,963.867,-836.914,965.820,0.000
1700264832.522,450.684,966.309,-671.875,965.820,0.000
1700264832.526,999.512,965.820,-277.832,965.820,0.000
1700264832.529,682.129,966.309,-326.172,965.820,0.000
1700264832.533,-459.961,970.703,-744.629,966.309,0.000
1700264832.537,-141.602,937.012,-842.773,966.309,0.000
1700264832.541,911.133,983.887,-298.828,966.309,0.000
1700264832.545,999.512,812.988,13.184,965.820,0.000
1700264832.549,-171.875,-238.281,-604.980,965.820,0.000
1700264832.553,-625.000,-990.723,-998.535,966.309,0.000
1700264832.557,511.719,-979.492,-610.352,965.820,0.000
1700264832.561,999.512,-989.258,-83.984,966.309,0.000
1700264832.565,99.121,-1000.000,-561.035,965.820,0.000
1700264832.568,-890.625,-1000.000,-1000.000,966.309,0.000
1700264832.572,139.160,-1000.000,-852.051,965.820,0.000
1700264832.576,999.512,-1000.000,-434.570,965.820,0.000
1700264832.580,387.207,-1000.000,-618.652,966.309,0.000
1700264832.584,-845.703,-1000.000,-1000.000,966.309,0.000
1700264832.588,-213.379,-1000.000,-954.590,966.309,0.000
1700264832.592,955.078,-1000.000,-578.613,966.309,0.000
1700264832.596,645.508,-1000.000,-625.000,965.820,0.000
1700264832.600,-776.855,-1000.000,-968.750,965.820,0.000
1700264832.604,-918.457,-1000.000,-993.652,966.309,0.000
1700264832.608,389.160,-1000.000,-740.234,966.309,0.000
1700264832.611,870.117,-1000.000,-642.578,966.309,0.000
1700264832.615,-417.969,-1000.000,-956.055,966.309,0.000
1700264832.619,-1000.000,-1000.000,-1000.000,965.820,0.000
1700264832.623,-251.953,-1000.000,-890.137,965.820,0.000
1700264832.627,796.875,-1000.000,-732.422,965.820,0.000
1700264832.631,-185.059,-1000.000,-903.320,965.820,0.000
1700264832.635,-1000.000,-1000.000,-1000.000,965.820,0.000
1700264832.639,-793.457,-1000.000,-953.613,966.309,0.000
1700264832.643,417.480,-1000.000,-822.266,966.309,0.000
1700264832.647,107.422,-1000.000,-883.301,965.820,0.000
1700264832.651,-1000.000,-995.117,-1000.000,965.820,0.000
1700264832.654,-778.320,-1000.000,-961.914,965.820,0.000
1700264832.658,536.621,-917.480,-772.461,965.820,0.000
1700264832.662,713.867,-863.281,-764.160,966.309,0.000
1700264832.666,-733.398,-1000.000,-970.703,965.820,0.000
1700264832.670,-925.781,-820.312,-943.359,965.820,0.000
1700264832.674,307.129,-290.527,-790.527,965.820,0.000
1700264832.678,999.512,-48.340,-676.270,965.820,0.000
1700264832.682,-223.145,-167.969,-756.348,965.820,0.000
1700264832.686,-1000.000,-360.352,-940.430,965.820,0.000
1700264832.690,92.285,-135.254,-715.820,965.820,0.000
1700264832.694,999.512,311.035,-281.250,965.820,0.000
1700264832.697,193.359,-17.090,-567.871,965.820,0.000
1700264832.701,-1000.000,-452.637,-944.336,966.309,0.000
1700264832.705,-426.758,-303.711,-843.750,966.309,0.000
1700264832.709,887.207,50.293,-455.566,965.820,0.000
1700264832.713,415.039,-5.371,-534.180,965.820,0.000
1700264832.717,-994.629,-494.141,-932.617,965.820,0.000
1700264832.721,-963.379,-739.258,-977.051,965.820,0.000
1700264832.725,228.027,-287.109,-700.195,965.820,0.000
1700264832.729,356.934,64.941,-580.078,965.820,0.000
1700264832.733,-855.469,-476.562,-926.270,966.309,0.000
1700264832.737,-1000.000,-606.934,-1000.000,965.820,0.000
1700264832.740,-398.926,-55.664,-774.414,965.820,0.000
1700264832.744,379.883,296.875,-617.676,966.309,0.000
1700264832.748,-552.734,-140.137,-881.836,965.820,0.000
1700264832.752,-1000.000,-435.547,-1000.000,966.309,0.000
1700264832.756,-761.230,-109.375,-914.551,966.309,0.000
1700264832.760,-15.137,230.957,-782.227,965.820,0.000
1700264832.764,-443.848,146.484,-895.508,965.820,0.000
1700264832.768,-1000.000,240.234,-1000.000,976.074,0.000
1700264832.772,-1000.000,831.543,-950.195,895.508,0.000
1700264832.776,-158.691,986.328,-761.230,999.512,0.000
1700264832.779,-60.059,947.754,-783.691,409.668,0.000
1700264832.783,-1000.000,967.773,-954.102,-965.820,0.000
1700264832.787,-1000.000,966.797,-922.363,-1000.000,0.000
1700264832.791,120.117,965.820,-634.766,-955.566,0.000
1700264832.795,783.691,965.820,-490.234,-1000.000,0.000
1700264832.799,-538.086,965.820,-784.668,-1000.000,0.000
1700264832.803,-855.957,966.309,-937.500,-1000.000,0.000
1700264832.807,315.430,966.309,-544.434,-1000.000,0.000
1700264832.811,999.512,965.820,-337.891,-1000.000,0.000
1700264832.815,226.562,965.820,-623.535,-1000.000,0.000
1700264832.819,-531.250,966.309,-658.203,-1000.000,0.000
1700264832.822,289.551,966.309,-508.789,-1000.000,0.000
1700264832.826,999.512,965.820,5.859,-1000.000,0.000
1700264832.830,575.195,966.309,-43.945,-1000.000,0.000
1700264832.834,-266.602,966.309,-474.121,-1000.000,0.000
1700264832.838,274.414,966.309,-367.188,-1000.000,0.000
1700264832.842,999.512,965.820,77.637,-1000.000,0.000
1700264832.846,755.371,965.820,198.730,-1000.000,0.000
1700264832.850,-266.113,966.309,-291.016,-1000.000,0.000
1700264832.854,-407.715,966.309,-437.988,-1000.000,0.000
1700264832.858,590.820,966.309,-211.426,-1000.000,0.000
1700264832.861,846.191,966.309,264.160,-1000.000,0.000
1700264832.865,-427.734,966.309,-52.734,-1000.000,0.000
1700264832.869,-1000.000,965.820,-502.441,-1000.000,0.000
1700264832.873,-277.832,965.820,-37.598,-1000.000,0.000
1700264832.877,245.117,966.309,421.875,-1000.000,0.000
1700264832.881,-560.547,966.309,-16.602,-1000.000,0.000
1700264832.885,-1000.000,966.309,-523.926,-1000.000,0.000
1700264832.889,-936.523,966.309,-292.480,-1000.000,0.000
1700264832.893,-662.598,965.820,161.133,-1000.000,0.000
1700264832.897,-816.406,966.309,-90.332,-1000.000,0.000
1700264832.901,-1000.000,966.309,-743.652,-924.316,0.000
1700264832.904,-1000.000,966.309,-651.367,-1000.000,0.000
1700264832.908,-854.004,966.309,35.156,-157.227,0.000
1700264832.912,-833.984,966.309,103.516,697.266,0.000
1700264832.916,-982.910,966.309,-392.090,-845.703,0.000
1700264832.920,-1000.000,965.820,-476.074,-952.637,0.000
1700264832.924,-610.840,966.309,20.508,436.523,0.000
1700264832.928,-12.695,965.332,386.230,999.512,0.000
1700264832.932,-708.984,962.402,-36.621,473.145,0.000
1700264832.936,-1000.000,957.031,-264.160,390.625,0.000
1700264832.940,23.438,963.867,164.551,999.512,0.000
1700264832.943,999.512,978.516,480.469,966.309,0.000
1700264832.947,544.434,648.438,94.727,952.148,0.000
1700264832.951,83.984,474.121,-45.898,968.750,0.000
1700264832.955,775.879,743.164,373.047,965.820,0.000
1700264832.959,999.512,850.098,568.848,965.820,0.000
1700264832.963,894.531,606.445,544.922,965.820,0.000
1700264832.967,819.336,229.004,336.914,965.820,0.000
1700264832.971,939.453,219.727,377.930,965.820,0.000
1700264832.975,978.516,446.289,618.164,965.820,0.000
1700264832.979,969.238,419.922,643.066,965.820,0.000
1700264832.983,800.293,105.957,455.078,965.820,0.000
1700264832.986,833.008,-80.566,347.656,966.309,0.000
1700264832.990,971.680,-5.859,491.699,962.891,0.000
1700264832.994,999.512,139.648,636.230,976.562,0.000
1700264832.998,690.430,-117.188,430.664,921.387,0.000
1700264833.002,591.309,-404.785,226.562,918.457,0.000
1700264833.006,956.543,-393.066,250.488,917.969,0.000
1700264833.010,999.512,-129.395,495.117,999.512,0.000
1700264833.014,704.590,-299.805,374.512,709.473,0.000
1700264833.018,213.379,-791.504,-116.699,-733.887,0.000
1700264833.022,631.836,-744.141,-107.422,-384.766,0.000
1700264833.026,999.512,-412.109,360.840,999.512,0.000
1700264833.030,771.973,-495.605,296.387,476.074,0.000
1700264833.033,-10.742,-921.875,-327.148,-874.023,0.000
1700264833.037,135.254,-994.629,-534.668,-1000.000,0.000
1700264833.041,876.953,-755.859,-48.828,-31.738,0.000
1700264833.045,967.773,-780.273,202.148,580.566,0.000
1700264833.049,73.730,-996.094,-484.375,-838.379,0.000
1700264833.053,-318.359,-995.605,-806.152,-1000.000,0.000
1700264833.057,515.625,-843.262,-172.852,-654.785,0.000
1700264833.061,999.512,-802.246,273.438,36.621,0.000
1700264833.065,224.609,-965.332,-220.703,-703.613,0.000
1700264833.069,-500.977,-1000.000,-712.402,-1000.000,0.000
1700264833.073,340.332,-989.746,-382.324,-986.816,0.000
1700264833.076,999.512,-966.309,136.719,-311.035,0.000
1700264833.080,489.746,-988.281,-183.105,-461.914,0.000
1700264833.084,-394.531,-1000.000,-721.680,-1000.000,0.000
1700264833.088,112.793,-1000.000,-585.938,-1000.000,0.000
1700264833.092,988.770,-980.957,-78.125,-368.164,0.000
1700264833.096,791.504,-979.980,-39.551,-172.363,0.000
1700264833.100,-177.734,-1000.000,-575.684,-1000.000,0.000
1700264833.104,-27.344,-1000.000,-567.871,-1000.000,0.000
1700264833.108,857.910,-952.148,-63.965,-199.219,0.000
1700264833.112,999.512,-944.336,2.930,999.512,0.000
1700264833.116,155.273,-1000.000,-446.777,-140.625,0.000
1700264833.119,-91.797,-1000.000,-494.629,-584.473,0.000
1700264833.123,762.207,-997.070,-175.293,916.992,0.000
1700264833.127,999.512,-977.051,262.695,999.512,0.000
1700264833.131,521.484,-993.164,-125.000,918.457,0.000
1700264833.135,174.316,-1000.000,-594.238,976.074,0.000
1700264833.139,736.816,-998.535,-428.711,966.309,0.000
1700264833.143,999.512,-1000.000,57.617,965.820,0.000
1700264833.147,756.836,-1000.000,180.664,965.820,0.000
1700264833.151,190.430,-1000.000,-360.840,966.309,0.000
1700264833.154,550.293,-1000.000,-310.059,966.309,0.000
1700264833.158,999.512,-1000.000,242.676,965.820,0.000
1700264833.162,930.176,-1000.000,437.500,965.820,0.000
1700264833.166,458.984,-1000.000,-36.133,965.820,0.000
1700264833.170,590.820,-1000.000,-258.301,965.820,0.000
1700264833.174,999.512,-1000.000,250.488,965.820,0.000
1700264833.178,999.512,-1000.000,542.969,965.820,0.000
1700264833.182,602.539,-1000.000,232.422,965.820,0.000
1700264833.186,520.020,-1000.000,-87.402,965.820,0.000
1700264833.190,956.543,-1000.000,290.039,965.820,0.000
1700264833.194,999.512,-1000.000,767.090,965.820,0.000
1700264833.197,626.953,-999.512,506.348,965.820,0.000
1700264833.201,-9.766,-993.652,349.609,964.355,0.000
1700264833.205,460.449,-1000.000,575.684,906.738,0.000
1700264833.209,999.512,-866.699,801.270,999.512,0.000
1700264833.213,440.430,-826.660,731.934,151.855,0.000
1700264833.217,-842.773,-836.914,568.359,-1000.000,0.000
1700264833.221,-899.902,-356.934,689.453,-979.492,0.000
1700264833.225,-137.207,190.918,844.727,-975.586,0.000
1700264833.229,-450.684,296.387,844.238,-1000.000,0.000
1700264833.233,-1000.000,219.238,800.781,-1000.000,0.000
1700264833.236,-985.840,606.934,855.469,-1000.000,0.000
1700264833.240,-990.234,920.410,904.297,-1000.000,0.000
1700264833.244,-1000.000,960.449,915.039,-1000.000,0.000
1700264833.248,-1000.000,961.426,916.504,-1000.000,0.000
1700264833.252,-1000.000,966.309,928.223,-1000.000,0.000
1700264833.256,-1000.000,966.309,941.406,-1000.000,0.000
1700264833.260,-1000.000,966.309,946.777,-1000.000,0.000
1700264833.264,-1000.000,966.309,948.242,-1000.000,0.000
1700264833.268,-1000.000,966.309,942.383,-1000.000,0.000
1700264833.272,-1000.000,966.309,945.312,-1000.000,0.000
1700264833.276,-1000.000,966.309,963.867,-1000.000,0.000
1700264833.279,-1000.000,966.309,964.844,-1000.000,0.000
1700264833.283,-1000.000,966.309,950.195,-1000.000,0.000
1700264833.287,-1000.000,966.309,951.660,-1000.000,0.000
1700264833.291,-1000.000,966.309,960.938,-1000.000,0.000
1700264833.295,-1000.000,965.820,959.961,-1000.000,0.000
1700264833.299,-1000.000,966.309,942.383,-931.641,0.000
1700264833.303,-1000.000,966.309,938.965,-1000.000,0.000
1700264833.307,-1000.000,966.309,940.918,-636.719,0.000
1700264833.311,-1000.000,962.402,942.383,879.883,0.000
1700264833.315,-1000.000,974.609,933.105,75.684,0.000
1700264833.318,-1000.000,929.688,916.016,-1000.000,0.000
1700264833.322,-1000.000,878.418,911.133,-313.477,0.000
1700264833.326,-1000.000,972.656,930.176,999.512,0.000
1700264833.330,-1000.000,908.691,918.945,593.262,0.000
1700264833.334,-1000.000,628.906,887.207,-913.574,0.000
1700264833.338,-1000.000,630.859,888.184,-75.195,0.000
1700264833.342,-1000.000,845.215,901.855,999.512,0.000
1700264833.346,-1000.000,685.547,889.648,943.359,0.000
1700264833.350,-1000.000,279.785,854.492,645.020,0.000
1700264833.354,-1000.000,250.977,850.586,749.023,0.000
1700264833.358,-1000.000,492.188,864.746,999.512,0.000
1700264833.361,-1000.000,527.832,870.117,950.684,0.000
1700264833.365,-994.629,152.832,827.148,966.309,0.000
1700264833.369,-1000.000,-20.020,766.602,966.309,0.000
1700264833.373,-973.145,254.883,811.035,965.820,0.000
1700264833.377,-915.527,510.742,867.188,965.820,0.000
1700264833.381,-970.703,134.766,669.922,965.820,0.000
1700264833.385,-1000.000,-81.543,530.762,966.309,0.000
1700264833.389,-866.211,167.480,648.926,966.309,0.000
1700264833.393,-367.676,288.574,764.648,965.820,0.000
1700264833.397,-594.727,101.074,621.582,965.820,0.000
1700264833.401,-1000.000,-175.781,402.832,965.820,0.000
1700264833.404,-853.516,-138.184,410.645,965.820,0.000
1700264833.408,-41.016,20.508,586.914,965.820,0.000
1700264833.412,-138.672,-60.547,555.664,965.820,0.000
1700264833.416,-972.656,-344.727,143.555,965.820,0.000
1700264833.420,-972.656,-391.113,1.465,966.309,0.000
1700264833.424,-44.922,-115.234,289.062,965.820,0.000
1700264833.428,312.012,77.148,446.777,965.820,0.000
1700264833.432,-674.316,-31.250,148.926,965.820,0.000
1700264833.436,-1000.000,-147.461,-216.797,965.820,0.000
1700264833.440,-294.922,-11.719,-23.926,965.820,0.000
1700264833.444,515.625,261.230,356.445,965.820,0.000
1700264833.447,-208.496,190.430,125.000,965.820,0.000
1700264833.451,-1000.000,-58.105,-430.176,965.820,0.000
1700264833.455,-291.992,16.113,-411.133,965.820,0.000
1700264833.459,711.426,270.020,88.867,965.820,0.000
1700264833.463,215.820,158.203,37.598,965.820,0.000
1700264833.467,-934.570,-195.312,-549.805,965.820,0.000
1700264833.471,-698.730,-354.492,-815.430,965.820,0.000
1700264833.475,254.395,-128.906,-273.438,965.820,0.000
1700264833.479,114.258,68.848,80.078,965.820,0.000
1700264833.482,-809.082,-302.246,-658.203,965.820,0.000
1700264833.486,-1000.000,-490.234,-867.676,965.820,0.000
1700264833.490,-514.160,-348.145,-361.328,965.820,0.000
1700264833.494,-307.617,-275.879,7.812,965.820,0.000
1700264833.498,-950.684,-556.152,-502.441,965.820,0.000
1700264833.502,-1000.000,-831.055,-963.379,965.820,0.000
1700264833.506,-975.586,-720.215,-621.094,966.309,0.000
1700264833.510,-1000.000,-617.188,-52.246,965.820,0.000
1700264833.514,-999.512,-831.055,-403.320,965.820,0.000
1700264833.518,-1000.000,-1000.000,-882.812,966.309,0.000
1700264833.522,-1000.000,-902.832,-450.195,966.309,0.000
1700264833.525,-1000.000,-736.816,164.551,965.820,0.000
1700264833.529,-1000.000,-857.422,65.430,965.820,0.000
1700264833.533,-1000.000,-1000.000,-537.109,965.820,0.000
1700264833.537,-1000.000,-1000.000,-395.508,965.820,0.000
1700264833.541,-1000.000,-824.219,175.293,964.844,0.000
1700264833.545,-1000.000,-760.742,392.578,970.703,0.000
1700264833.549,-1000.000,-966.309,-93.262,937.988,0.000
1700264833.553,-1000.000,-1000.000,-450.195,939.941,0.000
1700264833.557,-1000.000,-967.285,75.195,969.727,0.000
1700264833.561,-1000.000,-947.266,346.191,967.773,0.000
1700264833.565,-1000.000,-998.047,34.180,955.566,0.000
1700264833.568,-1000.000,-1000.000,-28.809,949.707,0.000
1700264833.572,-1000.000,-991.211,179.688,967.285,0.000
1700264833.576,-1000.000,-919.922,472.168,966.309,0.000
1700264833.580,-1000.000,-948.242,350.586,965.332,0.000
1700264833.584,-1000.000,-1000.000,72.266,965.820,0.000
1700264833.588,-1000.000,-1000.000,184.570,966.309,0.000
1700264833.592,-1000.000,-904.297,490.723,965.820,0.000
1700264833.596,-967.773,-870.605,491.699,965.820,0.000
1700264833.600,-1000.000,-1000.000,130.859,965.820,0.000
1700264833.604,-851.074,-990.723,83.008,965.820,0.000
1700264833.607,321.289,-778.320,390.625,965.820,0.000
1700264833.611,999.512,-512.207,619.141,965.820,0.000
1700264833.615,329.590,-673.340,333.496,965.820,0.000
1700264833.619,399.414,-806.152,51.270,965.820,0.000
1700264833.623,999.512,-540.527,362.305,965.820,0.000
1700264833.627,961.426,-278.320,652.344,965.820,0.000
1700264833.631,952.148,-433.594,406.738,966.309,0.000
1700264833.635,968.750,-658.203,78.125,965.820,0.000
1700264833.639,965.332,-437.988,287.109,965.820,0.000
1700264833.643,965.332,-125.977,617.188,965.820,0.000
1700264833.647,965.332,-208.008,490.723,965.820,0.000
1700264833.650,965.332,-475.586,-78.613,965.820,0.000
1700264833.654,965.332,-303.223,-55.176,965.820,0.000
1700264833.658,965.332,242.188,589.844,966.309,0.000
1700264833.662,965.332,361.816,611.328,965.820,0.000
1700264833.666,965.332,52.734,354.492,965.820,0.000
1700264833.670,965.332,62.500,426.758,965.820,0.000
1700264833.674,965.332,375.977,732.910,965.820,0.000
1700264833.678,965.332,463.379,850.098,965.820,0.000
1700264833.682,965.332,145.508,802.734,965.820,0.000
1700264833.686,965.332,142.090,831.055,965.820,0.000
1700264833.689,965.332,508.789,875.488,965.820,0.000
1700264833.693,965.332,675.293,885.254,965.820,0.000
1700264833.697,965.332,373.047,872.070,965.820,0.000
1700264833.701,965.332,237.793,878.906,965.820,0.000
1700264833.705,965.332,459.961,904.785,965.820,0.000
1700264833.709,965.332,605.957,930.664,965.820,0.000
1700264833.713,965.332,478.516,932.129,965.820,0.000
1700264833.717,965.332,270.020,918.945,965.820,0.000
1700264833.721,965.332,340.820,929.688,965.820,0.000
1700264833.725,965.332,579.102,941.895,965.820,0.000
1700264833.729,965.332,677.734,943.848,965.820,0.000
1700264833.732,965.332,506.836,942.383,965.820,0.000
1700264833.736,965.332,492.676,942.383,965.820,0.000
1700264833.740,965.332,677.246,951.660,965.820,0.000
1700264833.744,965.332,867.188,964.844,965.820,0.000
1700264833.748,965.332,803.223,956.543,965.820,0.000
1700264833.752,966.797,666.504,946.289,970.215,0.000
1700264833.756,957.031,784.180,950.684,942.871,0.000
1700264833.760,983.887,970.703,964.355,999.512,0.000
1700264833.764,912.598,905.273,962.402,866.699,0.000
1700264833.768,840.332,712.402,949.219,515.137,0.000
1700264833.772,927.734,798.340,948.242,802.734,0.000
1700264833.775,999.512,961.914,963.867,999.512,0.000
1700264833.779,831.543,978.027,967.285,989.746,0.000
1700264833.783,-29.297,838.379,959.473,124.023,0.000
1700264833.787,-344.727,828.125,958.496,139.160,0.000
1700264833.791,397.461,958.984,965.820,981.934,0.000
1700264833.795,226.074,999.512,966.309,999.512,0.000
1700264833.799,-849.609,826.660,965.820,71.289,0.000
1700264833.803,-1000.000,618.652,966.309,-782.715,0.000
1700264833.807,-730.469,837.891,965.820,438.477,0.000
1700264833.810,-569.336,893.066,965.820,999.512,0.000
1700264833.815,-957.520,526.367,965.820,256.836,0.000
1700264833.818,-1000.000,341.309,966.309,-1000.000,0.000
1700264833.822,-925.293,560.547,966.309,-257.324,0.000
1700264833.826,-608.398,776.367,965.820,999.512,0.000
1700264833.830,-797.363,620.117,965.820,482.910,0.000
1700264833.834,-1000.000,405.273,966.309,-996.094,0.000
1700264833.838,-1000.000,552.246,966.309,-793.457,0.000
1700264833.842,-821.289,824.219,965.820,713.867,0.000
1700264833.846,-812.012,660.645,965.820,800.293,0.000
1700264833.850,-1000.000,358.398,965.820,-653.809,0.000
1700264833.853,-1000.000,383.301,965.820,-1000.000,0.000
1700264833.857,-820.801,508.789,965.820,11.230,0.000
1700264833.861,-745.605,475.098,965.820,999.512,0.000
1700264833.865,-996.094,191.895,966.309,-230.957,0.000
1700264833.869,-1000.000,59.082,966.309,-1000.000,0.000
1700264833.873,-869.141,141.113,965.820,-338.379,0.000
1700264833.877,-608.887,185.059,965.820,999.512,0.000
1700264833.881,-877.441,-58.594,965.820,206.543,0.000
1700264833.885,-1000.000,-288.086,965.820,-1000.000,0.000
1700264833.889,-930.176,-238.770,965.820,-670.410,0.000
1700264833.893,-585.449,-117.676,965.820,887.207,0.000
1700264833.896,-797.852,-148.926,965.820,420.898,0.000
1700264833.900,-1000.000,-316.406,965.820,-1000.000,0.000
1700264833.904,-981.445,-325.195,966.309,-972.656,0.000
1700264833.908,-1000.000,-106.445,965.820,375.488,0.000
1700264833.912,-1000.000,-46.387,965.820,929.199,0.000
1700264833.916,-1000.000,-333.496,965.820,-544.922,0.000
1700264833.920,-1000.000,-372.070,966.309,-1000.000,0.000
1700264833.924,-1000.000,-54.199,966.309,94.727,0.000
1700264833.928,-1000.000,104.004,965.820,999.512,0.000
1700264833.932,-1000.000,21.484,965.820,42.480,0.000
1700264833.936,-1000.000,-67.871,966.309,-1000.000,0.000
1700264833.939,-1000.000,115.723,965.820,-73.242,0.000
1700264833.943,-1000.000,422.363,965.820,999.512,0.000
1700264833.947,-1000.000,331.055,965.820,398.438,0.000
1700264833.951,-1000.000,273.926,966.309,-1000.000,0.000
1700264833.955,-1000.000,495.117,965.820,-200.195,0.000
1700264833.959,-1000.000,767.578,965.820,999.512,0.000
1700264833.963,-1000.000,689.453,965.820,829.590,0.000
1700264833.967,-1000.000,483.887,966.309,-654.297,0.000
1700264833.971,-1000.000,665.527,965.820,-542.969,0.000
1700264833.975,-1000.000,903.809,965.820,892.578,0.000
1700264833.978,-1000.000,926.758,965.820,999.512,0.000
1700264833.982,-1000.000,740.234,965.820,-106.445,0.000
1700264833.986,-1000.000,854.004,965.820,-874.512,0.000
1700264833.990,-1000.000,985.352,965.820,432.129,0.000
1700264833.994,-1000.000,958.984,965.820,999.512,0.000
1700264833.998,-1000.000,965.332,965.820,196.289,0.000
1700264834.002,-1000.000,966.309,966.309,-958.984,0.000
1700264834.006,-1000.000,965.820,965.820,161.133,0.000
1700264834.010,-1000.000,966.309,965.820,999.512,0.000
1700264834.014,-1000.000,966.309,965.820,590.820,0.000
1700264834.018,-1000.000,965.820,965.820,-655.273,0.000
1700264834.021,-1000.000,965.820,965.820,25.391,0.000
1700264834.025,-1000.000,966.309,965.820,999.512,0.000
1700264834.029,-1000.000,966.309,965.820,941.406,0.000
1700264834.033,-1000.000,966.309,965.820,-211.426,0.000
1700264834.037,-1000.000,965.820,965.820,-182.129,0.000
1700264834.041,-1000.000,965.820,965.820,956.055,0.000
1700264834.045,-1000.000,965.820,965.820,999.512,0.000
1700264834.049,-962.891,966.309,966.309,233.398,0.000
1700264834.053,-1000.000,966.309,965.820,-282.227,0.000
1700264834.057,-745.605,965.820,966.309,725.098,0.000
1700264834.060,163.086,965.820,965.820,999.512,0.000
1700264834.064,-269.043,965.820,965.820,411.133,0.000
1700264834.068,-490.723,965.820,965.820,-520.020,0.000
1700264834.072,644.531,966.309,966.309,354.980,0.000
1700264834.076,999.512,965.820,965.820,999.512,0.000
1700264834.080,929.199,965.820,965.820,682.129,0.000
1700264834.084,966.309,965.820,965.820,-611.816,0.000
1700264834.088,966.309,965.820,965.820,-206.055,0.000
1700264834.092,965.332,965.820,965.820,999.512,0.000
1700264834.096,965.332,965.820,965.820,979.492,0.000
1700264834.100,965.332,966.309,966.309,-330.566,0.000
1700264834.103,965.820,964.355,966.309,-830.566,0.000
1700264834.107,965.332,966.797,965.820,596.680,0.000
1700264834.111,965.332,965.332,965.820,999.512,0.000
1700264834.115,965.332,905.762,965.820,-221.191,0.000
1700264834.119,965.332,884.766,965.820,-1000.000,0.000
1700264834.123,965.332,930.664,965.820,37.598,0.000
1700264834.127,965.332,983.398,965.820,999.512,0.000
1700264834.131,965.332,859.375,966.309,290.527,0.000
1700264834.135,965.332,742.676,965.820,-1000.000,0.000
1700264834.139,965.332,844.727,966.309,-512.695,0.000
1700264834.143,965.332,915.039,966.309,999.512,0.000
1700264834.146,965.332,788.086,965.820,516.602,0.000
1700264834.150,965.332,638.184,965.820,-962.402,0.000
1700264834.154,965.332,677.246,965.820,-960.449,0.000
1700264834.158,965.332,732.910,965.820,402.344,0.000
1700264834.162,965.332,664.551,965.820,897.461,0.000
1700264834.166,965.820,547.852,965.820,-476.562,0.000
1700264834.170,965.332,553.223,966.309,-1000.000,0.000
1700264834.174,964.844,644.531,966.309,-102.051,0.000
1700264834.178,965.332,609.863,965.820,999.512,0.000
